        Strain;Standard force
           0,0; 6,371087e-001
           0,0; 6,894578e-001
           0,0; 7,156323e-001
           0,0; 7,505316e-001
           0,0;-5,843687e-001
           0,0;-8,112145e-001
           0,0;-8,810132e-001
           0,0;-9,071878e-001
           0,0;-9,246374e-001
 4,628906e-006;-9,595368e-001
 4,628906e-006;-9,769865e-001
 4,628906e-006;-9,769865e-001
 4,628906e-006;-9,944361e-001
 4,628906e-006;-9,857113e-001
 4,628906e-006;-9,682616e-001
 4,628906e-006;-9,769865e-001
-5,537109e-005;-9,769865e-001
 4,628906e-006;-9,769865e-001
 4,628906e-006;-9,682616e-001
 4,628906e-006;-9,769865e-001
 4,628906e-006;-9,857113e-001
 4,628906e-006;-9,857113e-001
 6,462890e-005;-9,769865e-001
 6,462890e-005;-9,944361e-001
 6,462890e-005;-1,003161e+000
 6,462890e-005;-9,857113e-001
 6,462890e-005;-9,857113e-001
 6,462890e-005;-9,595368e-001
 6,462890e-005;-9,769865e-001
 6,462890e-005;-9,769865e-001
 6,462890e-005;-9,508119e-001
 6,462890e-005;-9,508119e-001
 6,462890e-005;-9,508119e-001
 6,462890e-005;-9,333622e-001
 6,462890e-005;-9,333622e-001
 6,462890e-005;-9,333622e-001
 1,246289e-004;-8,722884e-001
 3,046289e-004;-7,675903e-001
 8,446289e-004;-5,930936e-001
 1,444629e-003;-3,400732e-001
 2,164629e-003;-3,470386e-002
 2,944629e-003; 3,055649e-001
 3,664629e-003; 6,720081e-001
 4,384629e-003; 9,861023e-001
 5,044629e-003; 1,317646e+000
 5,704629e-003; 1,631740e+000
 6,424629e-003; 1,910935e+000
 7,084629e-003; 2,172680e+000
 7,804629e-003; 2,504224e+000
 8,404629e-003; 2,722345e+000
 9,124629e-003; 2,966641e+000
 9,784629e-003; 3,184762e+000
 1,044463e-002; 3,394158e+000
 1,110463e-002; 3,559930e+000
 1,182463e-002; 3,699527e+000
 1,248463e-002; 3,839125e+000
 1,326463e-002; 3,987447e+000
 1,386463e-002; 4,100870e+000
 1,452463e-002; 4,188118e+000
 1,518463e-002; 4,292816e+000
 1,584463e-002; 4,388789e+000
 1,650463e-002; 4,432414e+000
 1,722463e-002; 4,502213e+000
 1,782463e-002; 4,572011e+000
 1,854463e-002; 4,615635e+000
 1,920463e-002; 4,659259e+000
 1,986463e-002; 4,720333e+000
 2,052463e-002; 4,772682e+000
 2,118463e-002; 4,807582e+000
 2,184463e-002; 4,877380e+000
 2,250463e-002; 4,921005e+000
 2,322463e-002; 4,964629e+000
 2,382463e-002; 5,016978e+000
 2,454463e-002; 5,121676e+000
 2,520463e-002; 5,304897e+000
 2,574463e-002; 5,575367e+000
 2,640463e-002; 5,985435e+000
 2,706463e-002; 6,482751e+000
 2,784463e-002; 7,102214e+000
 2,844463e-002; 7,599530e+000
 2,916463e-002; 8,175369e+000
 2,982463e-002; 8,725035e+000
 3,048463e-002; 9,265974e+000
 3,108463e-002; 9,815639e+000
 3,186463e-002; 1,040020e+001
 3,246463e-002; 1,096732e+001
 3,318463e-002; 1,155188e+001
 3,384463e-002; 1,212772e+001
 3,450463e-002; 1,270356e+001
 3,522463e-002; 1,323578e+001
 3,582463e-002; 1,378544e+001
 3,648463e-002; 1,436128e+001
 3,714463e-002; 1,491967e+001
 3,780463e-002; 1,546933e+001
 3,846463e-002; 1,608007e+001
 3,912463e-002; 1,665591e+001
 3,984463e-002; 1,718813e+001
 4,044463e-002; 1,775524e+001
 4,116463e-002; 1,834853e+001
 4,188463e-002; 1,895055e+001
 4,248463e-002; 1,945659e+001
 4,314463e-002; 2,002370e+001
 4,386463e-002; 2,060826e+001
 4,446463e-002; 2,117538e+001
 4,518463e-002; 2,174249e+001
 4,584463e-002; 2,231833e+001
 4,650463e-002; 2,289417e+001
 4,716463e-002; 2,347001e+001
 4,788463e-002; 2,401095e+001
 4,854463e-002; 2,457807e+001
 4,920463e-002; 2,511901e+001
 4,986463e-002; 2,567740e+001
 5,046463e-002; 2,620961e+001
 5,118463e-002; 2,677673e+001
 5,178463e-002; 2,734384e+001
 5,250463e-002; 2,791096e+001
 5,316463e-002; 2,843444e+001
 5,382463e-002; 2,901028e+001
 5,448463e-002; 2,956867e+001
 5,520463e-002; 3,010089e+001
 5,598463e-002; 3,072908e+001
 5,652463e-002; 3,121767e+001
 5,718463e-002; 3,174988e+001
 5,784463e-002; 3,229955e+001
 5,850463e-002; 3,284049e+001
 5,916463e-002; 3,336398e+001
 5,982463e-002; 3,392237e+001
 6,048463e-002; 3,445458e+001
 6,114463e-002; 3,501297e+001
 6,180463e-002; 3,558009e+001
 6,252463e-002; 3,616465e+001
 6,318463e-002; 3,671432e+001
 6,384463e-002; 3,730761e+001
 6,450463e-002; 3,785727e+001
 6,516463e-002; 3,842439e+001
 6,582463e-002; 3,896532e+001
 6,648463e-002; 3,952372e+001
 6,714463e-002; 4,005593e+001
 6,780463e-002; 4,059687e+001
 6,840463e-002; 4,113781e+001
 6,918463e-002; 4,169620e+001
 6,990463e-002; 4,230694e+001
 7,050463e-002; 4,282170e+001
 7,116463e-002; 4,338009e+001
 7,188463e-002; 4,394721e+001
 7,254463e-002; 4,450560e+001
 7,320463e-002; 4,506399e+001
 7,380463e-002; 4,563110e+001
 7,452463e-002; 4,618949e+001
 7,518463e-002; 4,674788e+001
 7,590463e-002; 4,730627e+001
 7,650463e-002; 4,785594e+001
 7,716463e-002; 4,838815e+001
 7,782463e-002; 4,892909e+001
 7,854463e-002; 4,947876e+001
 7,920463e-002; 5,002842e+001
 7,986463e-002; 5,057809e+001
 8,046463e-002; 5,111030e+001
 8,118463e-002; 5,168614e+001
 8,184463e-002; 5,221836e+001
 8,250463e-002; 5,275057e+001
 8,322463e-002; 5,339621e+001
 8,382463e-002; 5,388480e+001
 8,448463e-002; 5,439957e+001
 8,520463e-002; 5,495795e+001
 8,586463e-002; 5,550762e+001
 8,652463e-002; 5,606601e+001
 8,718463e-002; 5,657205e+001
 8,784463e-002; 5,713916e+001
 8,850463e-002; 5,765393e+001
 8,922463e-002; 5,820359e+001
 8,982463e-002; 5,873581e+001
 9,054463e-002; 5,928548e+001
 9,120463e-002; 5,981769e+001
 9,186463e-002; 6,037608e+001
 9,252463e-002; 6,093447e+001
 9,318463e-002; 6,146669e+001
 9,384463e-002; 6,201635e+001
 9,450463e-002; 6,253984e+001
 9,516463e-002; 6,309823e+001
 9,582463e-002; 6,361300e+001
 9,654463e-002; 6,417139e+001
 9,726463e-002; 6,479958e+001
 9,786463e-002; 6,529689e+001
 9,852463e-002; 6,582910e+001
 9,918463e-002; 6,638750e+001
 9,978463e-002; 6,693716e+001
 1,005046e-001; 6,747810e+001
 1,011646e-001; 6,801031e+001
 1,018846e-001; 6,856870e+001
 1,024846e-001; 6,910964e+001
 1,032046e-001; 6,965931e+001
 1,038646e-001; 7,020025e+001
 1,045246e-001; 7,073246e+001
 1,051246e-001; 7,129086e+001
 1,057846e-001; 7,183179e+001
 1,065046e-001; 7,238145e+001
 1,072246e-001; 7,293985e+001
 1,078846e-001; 7,350697e+001
 1,084846e-001; 7,403918e+001
 1,091446e-001; 7,458012e+001
 1,098646e-001; 7,512978e+001
 1,104646e-001; 7,567945e+001
 1,111846e-001; 7,621166e+001
 1,119046e-001; 7,683985e+001
 1,125046e-001; 7,732845e+001
 1,132246e-001; 7,786938e+001
 1,138846e-001; 7,842777e+001
 1,145446e-001; 7,898616e+001
 1,152046e-001; 7,951838e+001
 1,158646e-001; 8,007677e+001
 1,165246e-001; 8,060898e+001
 1,171846e-001; 8,112375e+001
 1,178446e-001; 8,167341e+001
 1,185046e-001; 8,222308e+001
 1,191646e-001; 8,276402e+001
 1,198846e-001; 8,333113e+001
 1,205446e-001; 8,385462e+001
 1,211446e-001; 8,440429e+001
 1,218046e-001; 8,495395e+001
 1,225246e-001; 8,550362e+001
 1,231246e-001; 8,605328e+001
 1,238446e-001; 8,662912e+001
 1,245046e-001; 8,718751e+001
 1,252246e-001; 8,780698e+001
 1,258246e-001; 8,829556e+001
 1,264846e-001; 8,886268e+001
 1,271446e-001; 8,941235e+001
 1,278646e-001; 8,996201e+001
 1,285246e-001; 9,050294e+001
 1,291846e-001; 9,105261e+001
 1,298446e-001; 9,158483e+001
 1,305046e-001; 9,216940e+001
 1,312246e-001; 9,271033e+001
 1,318846e-001; 9,325127e+001
 1,325446e-001; 9,379221e+001
 1,332046e-001; 9,433315e+001
 1,338046e-001; 9,487409e+001
 1,345246e-001; 9,541503e+001
 1,351846e-001; 9,594725e+001
 1,357846e-001; 9,648819e+001
 1,365646e-001; 9,709020e+001
 1,371646e-001; 9,755262e+001
 1,378246e-001; 9,808483e+001
 1,384846e-001; 9,866068e+001
 1,391446e-001; 9,921033e+001
 1,398046e-001; 9,975127e+001
 1,404646e-001; 1,003097e+002
 1,411846e-001; 1,008419e+002
 1,418446e-001; 1,013741e+002
 1,425046e-001; 1,019150e+002
 1,432246e-001; 1,024647e+002
 1,438246e-001; 1,029795e+002
 1,444846e-001; 1,035466e+002
 1,451446e-001; 1,040788e+002
 1,458046e-001; 1,046285e+002
 1,465246e-001; 1,051607e+002
 1,471846e-001; 1,057278e+002
 1,478446e-001; 1,062513e+002
 1,485046e-001; 1,068009e+002
 1,492246e-001; 1,073419e+002
 1,498846e-001; 1,078828e+002
 1,506646e-001; 1,084761e+002
 1,512046e-001; 1,089385e+002
 1,518646e-001; 1,094707e+002
 1,525246e-001; 1,100030e+002
 1,531846e-001; 1,105439e+002
 1,538446e-001; 1,110761e+002
 1,545046e-001; 1,116345e+002
 1,551646e-001; 1,121754e+002
 1,557646e-001; 1,127164e+002
 1,564846e-001; 1,132486e+002
 1,571446e-001; 1,137895e+002
 1,578646e-001; 1,143392e+002
 1,585246e-001; 1,148801e+002
 1,591846e-001; 1,154036e+002
 1,598446e-001; 1,159446e+002
 1,605046e-001; 1,164855e+002
 1,611646e-001; 1,169916e+002
 1,618246e-001; 1,175151e+002
 1,625446e-001; 1,180734e+002
 1,632046e-001; 1,185882e+002
 1,638646e-001; 1,191030e+002
 1,645846e-001; 1,196875e+002
 1,652446e-001; 1,201499e+002
 1,658446e-001; 1,206211e+002
 1,665046e-001; 1,211359e+002
 1,671646e-001; 1,216419e+002
 1,678246e-001; 1,221479e+002
 1,685446e-001; 1,226365e+002
 1,692046e-001; 1,231600e+002
 1,698646e-001; 1,236399e+002
 1,705846e-001; 1,241285e+002
 1,711846e-001; 1,246258e+002
 1,718446e-001; 1,251231e+002
 1,725046e-001; 1,255855e+002
 1,732246e-001; 1,260828e+002
 1,738246e-001; 1,265627e+002
 1,745446e-001; 1,270339e+002
 1,752046e-001; 1,275224e+002
 1,758646e-001; 1,280023e+002
 1,764646e-001; 1,284734e+002
 1,771246e-001; 1,289708e+002
 1,779046e-001; 1,295030e+002
 1,785046e-001; 1,299130e+002
 1,791646e-001; 1,304104e+002
 1,798246e-001; 1,308902e+002
 1,805446e-001; 1,313788e+002
 1,812046e-001; 1,318587e+002
 1,818646e-001; 1,323473e+002
 1,825246e-001; 1,328533e+002
 1,831846e-001; 1,333594e+002
 1,838446e-001; 1,338567e+002
 1,845046e-001; 1,343802e+002
 1,851646e-001; 1,349124e+002
 1,858846e-001; 1,354097e+002
 1,865446e-001; 1,359332e+002
 1,871446e-001; 1,364305e+002
 1,878646e-001; 1,369278e+002
 1,885246e-001; 1,374339e+002
 1,891846e-001; 1,379486e+002
 1,898446e-001; 1,384547e+002
 1,905646e-001; 1,389869e+002
 1,912246e-001; 1,395802e+002
 1,918846e-001; 1,400339e+002
 1,925446e-001; 1,405573e+002
 1,931446e-001; 1,410721e+002
 1,938646e-001; 1,415869e+002
 1,945246e-001; 1,420929e+002
 1,951846e-001; 1,426077e+002
 1,958446e-001; 1,431137e+002
 1,965046e-001; 1,436285e+002
 1,971646e-001; 1,441345e+002
 1,978246e-001; 1,446755e+002
 1,984846e-001; 1,451815e+002
 1,992046e-001; 1,457137e+002
 1,998646e-001; 1,462285e+002
 2,005246e-001; 1,467694e+002
 2,011846e-001; 1,472668e+002
 2,018446e-001; 1,477902e+002
 2,025646e-001; 1,483050e+002
 2,032246e-001; 1,488285e+002
 2,038246e-001; 1,493520e+002
 2,045446e-001; 1,498755e+002
 2,052046e-001; 1,503728e+002
 2,059246e-001; 1,509661e+002
 2,064646e-001; 1,514110e+002
 2,078446e-001; 1,524319e+002
 2,085046e-001; 1,529641e+002
 2,092246e-001; 1,534963e+002
 2,098246e-001; 1,540110e+002
 2,104846e-001; 1,545433e+002
 2,112046e-001; 1,550493e+002
 2,118646e-001; 1,555728e+002
 2,125246e-001; 1,560701e+002
 2,131846e-001; 1,565849e+002
 2,139046e-001; 1,570909e+002
 2,145046e-001; 1,576057e+002
 2,151646e-001; 1,581466e+002
 2,158846e-001; 1,586527e+002
 2,164846e-001; 1,591761e+002
 2,171446e-001; 1,596822e+002
 2,178646e-001; 1,601882e+002
 2,184646e-001; 1,606507e+002
 2,191246e-001; 1,611829e+002
 2,198446e-001; 1,617587e+002
 2,205646e-001; 1,621862e+002
 2,211646e-001; 1,627184e+002
 2,225446e-001; 1,637567e+002
 2,232046e-001; 1,642889e+002
 2,238646e-001; 1,647950e+002
 2,245246e-001; 1,653097e+002
 2,252446e-001; 1,658158e+002
 2,259046e-001; 1,662956e+002
 2,265046e-001; 1,667755e+002
 2,272246e-001; 1,672641e+002
 2,278846e-001; 1,677352e+002
 2,285446e-001; 1,682238e+002
 2,292046e-001; 1,687299e+002
 2,298646e-001; 1,692272e+002
 2,305246e-001; 1,697507e+002
 2,311846e-001; 1,702567e+002
 2,318446e-001; 1,707453e+002
 2,325046e-001; 1,712339e+002
 2,331646e-001; 1,717225e+002
 2,338846e-001; 1,722460e+002
 2,344846e-001; 1,726735e+002
 2,351446e-001; 1,731621e+002
 2,364646e-001; 1,741480e+002
 2,371246e-001; 1,746453e+002
 2,377846e-001; 1,751513e+002
 2,385046e-001; 1,756487e+002
 2,391646e-001; 1,761460e+002
 2,398246e-001; 1,766520e+002
 2,405446e-001; 1,771406e+002
 2,412046e-001; 1,776292e+002
 2,418046e-001; 1,781091e+002
 2,425246e-001; 1,786064e+002
 2,431846e-001; 1,790688e+002
 2,439046e-001; 1,795312e+002
 2,445046e-001; 1,800111e+002
 2,451646e-001; 1,804822e+002
 2,458846e-001; 1,809534e+002
 2,465446e-001; 1,814507e+002
 2,471446e-001; 1,819393e+002
 2,479246e-001; 1,824889e+002
 2,485246e-001; 1,829077e+002
 2,491846e-001; 1,833963e+002
 2,505046e-001; 1,843473e+002
 2,512246e-001; 1,847923e+002
 2,518246e-001; 1,852896e+002
 2,525446e-001; 1,857607e+002
 2,530846e-001; 1,862668e+002
 2,538046e-001; 1,867554e+002
 2,545246e-001; 1,872789e+002
 2,550646e-001; 1,877849e+002
 2,558446e-001; 1,882648e+002
 2,565046e-001; 1,887621e+002
 2,572246e-001; 1,892681e+002
 2,578846e-001; 1,897567e+002
 2,585446e-001; 1,902366e+002
 2,592046e-001; 1,907775e+002
 2,598646e-001; 1,912487e+002
 2,605246e-001; 1,917809e+002
 2,611846e-001; 1,922956e+002
 2,619646e-001; 1,928715e+002
 2,625646e-001; 1,933165e+002
 2,638246e-001; 1,943634e+002
 2,644846e-001; 1,948956e+002
 2,652046e-001; 1,954191e+002
 2,658646e-001; 1,959426e+002
 2,664646e-001; 1,964923e+002
 2,671846e-001; 1,970158e+002
 2,678446e-001; 1,975305e+002
 2,685046e-001; 1,980453e+002
 2,691046e-001; 1,985950e+002
 2,698246e-001; 1,990923e+002
 2,705446e-001; 1,996071e+002
 2,711446e-001; 2,001218e+002
 2,718046e-001; 2,006540e+002
 2,724646e-001; 2,011601e+002
 2,731846e-001; 2,016749e+002
 2,738446e-001; 2,021896e+002
 2,744446e-001; 2,027305e+002
 2,751646e-001; 2,032191e+002
 2,758846e-001; 2,037514e+002
 2,772046e-001; 2,047722e+002
 2,778646e-001; 2,052608e+002
 2,785246e-001; 2,058017e+002
 2,791846e-001; 2,062816e+002
 2,799046e-001; 2,068312e+002
 2,805646e-001; 2,073373e+002
 2,812246e-001; 2,078520e+002
 2,818246e-001; 2,083319e+002
 2,824846e-001; 2,088379e+002
 2,831446e-001; 2,093004e+002
 2,838046e-001; 2,098238e+002
 2,845246e-001; 2,103299e+002
 2,851846e-001; 2,108447e+002
 2,858446e-001; 2,113420e+002
 2,865646e-001; 2,118655e+002
 2,871646e-001; 2,123715e+002
 2,878246e-001; 2,128601e+002
 2,885446e-001; 2,134185e+002
 2,891446e-001; 2,138809e+002
 2,904646e-001; 2,148842e+002
 2,911246e-001; 2,154165e+002
 2,919046e-001; 2,159487e+002
 2,925046e-001; 2,164722e+002
 2,931646e-001; 2,170131e+002
 2,938246e-001; 2,175453e+002
 2,945446e-001; 2,180863e+002
 2,951446e-001; 2,186098e+002
 2,958646e-001; 2,191682e+002
 2,965246e-001; 2,196829e+002
 2,971846e-001; 2,202064e+002
 2,978446e-001; 2,207212e+002
 2,985046e-001; 2,212621e+002
 2,991646e-001; 2,217681e+002
 2,998846e-001; 2,222916e+002
 3,005446e-001; 2,228326e+002
 3,011446e-001; 2,233561e+002
 3,018646e-001; 2,238447e+002
 3,025846e-001; 2,244379e+002
 3,031846e-001; 2,248655e+002
 3,038446e-001; 2,253628e+002
 3,052246e-001; 2,263661e+002
 3,058246e-001; 2,268634e+002
 3,064846e-001; 2,273869e+002
 3,072046e-001; 2,278843e+002
 3,078046e-001; 2,283990e+002
 3,084646e-001; 2,289051e+002
 3,091846e-001; 2,294460e+002
 3,097846e-001; 2,299520e+002
 3,105046e-001; 2,304755e+002
 3,111646e-001; 2,309816e+002
 3,118846e-001; 2,314963e+002
 3,124846e-001; 2,319762e+002
 3,132046e-001; 2,324910e+002
 3,138646e-001; 2,329883e+002
 3,145246e-001; 2,334943e+002
 3,151846e-001; 2,340091e+002
 3,158446e-001; 2,345326e+002
 3,165046e-001; 2,350125e+002
 3,172846e-001; 2,356057e+002
 3,178246e-001; 2,360507e+002
 3,185446e-001; 2,365655e+002
 3,198646e-001; 2,375601e+002
 3,205246e-001; 2,380487e+002
 3,211846e-001; 2,385635e+002
 3,219046e-001; 2,390695e+002
 3,225046e-001; 2,395843e+002
 3,232246e-001; 2,400903e+002
 3,244846e-001; 2,411024e+002
 3,252046e-001; 2,416259e+002
 3,258646e-001; 2,421232e+002
 3,271246e-001; 2,431266e+002
 3,277846e-001; 2,436588e+002
 3,284446e-001; 2,441823e+002
 3,291646e-001; 2,447930e+002
 3,301246e-001; 2,454735e+002
 3,311446e-001; 2,462675e+002
 3,324046e-001; 2,471487e+002
 3,337246e-001; 2,480997e+002
 3,349846e-001; 2,490769e+002
 3,363646e-001; 2,500977e+002
 3,375646e-001; 2,511011e+002
 3,391246e-001; 2,522266e+002
 3,402646e-001; 2,531427e+002
 3,416446e-001; 2,541897e+002
 3,442846e-001; 2,562487e+002
 3,456646e-001; 2,572870e+002
 3,469246e-001; 2,583340e+002
 3,482446e-001; 2,593548e+002
 3,495646e-001; 2,604017e+002
 3,508846e-001; 2,614574e+002
 3,522646e-001; 2,625219e+002
 3,536446e-001; 2,635688e+002
 3,550246e-001; 2,646507e+002
 3,563446e-001; 2,656803e+002
 3,576646e-001; 2,667098e+002
 3,589846e-001; 2,677219e+002
 3,603046e-001; 2,687339e+002
 3,616246e-001; 2,697198e+002
 3,630046e-001; 2,707407e+002
 3,642646e-001; 2,717615e+002
 3,656446e-001; 2,727823e+002
 3,669646e-001; 2,737682e+002
 3,682246e-001; 2,747715e+002
 3,695446e-001; 2,757836e+002
 3,723046e-001; 2,777903e+002
 3,736246e-001; 2,788286e+002
 3,750046e-001; 2,798494e+002
 3,763846e-001; 2,808528e+002
 3,777046e-001; 2,818648e+002
 3,789646e-001; 2,828682e+002
 3,802846e-001; 2,838803e+002
 3,816046e-001; 2,848749e+002
 3,829246e-001; 2,859132e+002
 3,843046e-001; 2,868816e+002
 3,856246e-001; 2,878937e+002
 3,868846e-001; 2,888709e+002
 3,882646e-001; 2,898830e+002
 3,896446e-001; 2,908601e+002
 3,909646e-001; 2,918810e+002
 3,922846e-001; 2,928494e+002
 3,936646e-001; 2,938441e+002
 3,949246e-001; 2,948300e+002
 3,964846e-001; 2,959118e+002
 3,976246e-001; 2,967669e+002
 3,989446e-001; 2,977353e+002
 4,015846e-001; 2,996635e+002
 4,029046e-001; 3,006494e+002
 4,042246e-001; 3,016179e+002
 4,055446e-001; 3,026125e+002
 4,068646e-001; 3,036159e+002
 4,082446e-001; 3,046279e+002
 4,095646e-001; 3,056662e+002
 4,108846e-001; 3,066783e+002
 4,123846e-001; 3,077078e+002
 4,137646e-001; 3,087286e+002
 4,150246e-001; 3,097145e+002
 4,163446e-001; 3,107092e+002
 4,176646e-001; 3,117125e+002
 4,189846e-001; 3,126635e+002
 4,203646e-001; 3,136407e+002
 4,216246e-001; 3,146266e+002
 4,228846e-001; 3,155863e+002
 4,242046e-001; 3,165722e+002
 4,256446e-001; 3,175756e+002
 4,282846e-001; 3,195910e+002
 4,296046e-001; 3,205944e+002
 4,309846e-001; 3,215977e+002
 4,323646e-001; 3,226098e+002
 4,336846e-001; 3,236306e+002
 4,350046e-001; 3,246253e+002
 4,362646e-001; 3,256461e+002
 4,376446e-001; 3,266494e+002
 4,389646e-001; 3,276528e+002
 4,402846e-001; 3,286300e+002
 4,415446e-001; 3,296421e+002
 4,428646e-001; 3,306367e+002
 4,442446e-001; 3,316750e+002
 4,455646e-001; 3,326521e+002
 4,469446e-001; 3,336904e+002
 4,482646e-001; 3,347025e+002
 4,496446e-001; 3,356884e+002
 4,512046e-001; 3,367877e+002
 4,523446e-001; 3,376776e+002
 4,536646e-001; 3,386548e+002
 4,563646e-001; 3,406528e+002
 4,576246e-001; 3,416038e+002
 4,589446e-001; 3,425897e+002
 4,602046e-001; 3,435582e+002
 4,615246e-001; 3,445354e+002
 4,629046e-001; 3,455474e+002
 4,642846e-001; 3,465770e+002
 4,656046e-001; 3,475978e+002
 4,669846e-001; 3,486273e+002
 4,683046e-001; 3,496307e+002
 4,696246e-001; 3,506078e+002
 4,709446e-001; 3,516112e+002
 4,722646e-001; 3,525884e+002
 4,736446e-001; 3,535743e+002
 4,749646e-001; 3,545689e+002
 4,762846e-001; 3,555461e+002
 4,777246e-001; 3,566193e+002
 4,789246e-001; 3,575092e+002
 4,802446e-001; 3,584864e+002
 4,829446e-001; 3,604669e+002
 4,843246e-001; 3,614703e+002
 4,857046e-001; 3,624474e+002
 4,870246e-001; 3,634246e+002
 4,883446e-001; 3,643931e+002
 4,896046e-001; 3,654052e+002
 4,909846e-001; 3,663998e+002
 4,922446e-001; 3,673857e+002
 4,936246e-001; 3,684153e+002
 4,949446e-001; 3,694012e+002
 4,962646e-001; 3,704045e+002
 4,975846e-001; 3,713991e+002
 4,988446e-001; 3,724112e+002
 5,002846e-001; 3,734146e+002
 5,016046e-001; 3,744441e+002
 5,029846e-001; 3,754474e+002
 5,043646e-001; 3,764421e+002
 5,056247e-001; 3,774542e+002
 5,071246e-001; 3,785710e+002
 5,082646e-001; 3,793998e+002
 5,109646e-001; 3,813455e+002
 5,122846e-001; 3,823052e+002
 5,136046e-001; 3,832824e+002
 5,149246e-001; 3,842683e+002
 5,163046e-001; 3,852367e+002
 5,175647e-001; 3,862314e+002
 5,189446e-001; 3,872434e+002
 5,202646e-001; 3,882468e+002
 5,216447e-001; 3,892502e+002
 5,229647e-001; 3,902535e+002
 5,243446e-001; 3,912743e+002
 5,256646e-001; 3,922777e+002
 5,269246e-001; 3,932549e+002
 5,283647e-001; 3,942495e+002
 5,295646e-001; 3,952354e+002
 5,309446e-001; 3,961951e+002
 5,322646e-001; 3,971461e+002
 5,337646e-001; 3,982280e+002
 5,349046e-001; 3,990394e+002
 5,374846e-001; 4,009589e+002
 5,389246e-001; 4,019273e+002
 5,403646e-001; 4,028784e+002
 5,416246e-001; 4,038468e+002
 5,430647e-001; 4,047891e+002
 5,442646e-001; 4,057227e+002
 5,455846e-001; 4,066649e+002
 5,469046e-001; 4,076508e+002
 5,482846e-001; 4,086106e+002
 5,496047e-001; 4,095878e+002
 5,509246e-001; 4,105649e+002
 5,522446e-001; 4,115247e+002
 5,535046e-001; 4,124495e+002
 5,548247e-001; 4,134005e+002
 5,562046e-001; 4,143602e+002
 5,575846e-001; 4,153287e+002
 5,589646e-001; 4,162971e+002
 5,604047e-001; 4,174052e+002
 5,616646e-001; 4,182690e+002
 5,643046e-001; 4,201535e+002
 5,656247e-001; 4,211046e+002
 5,669446e-001; 4,220730e+002
 5,683246e-001; 4,229978e+002
 5,696446e-001; 4,239489e+002
 5,709646e-001; 4,249260e+002
 5,722846e-001; 4,258857e+002
 5,735446e-001; 4,268542e+002
 5,749246e-001; 4,278488e+002
 5,763046e-001; 4,288522e+002
 5,776246e-001; 4,298206e+002
 5,790046e-001; 4,308153e+002
 5,802646e-001; 4,318012e+002
 5,816447e-001; 4,327784e+002
 5,829046e-001; 4,337556e+002
 5,842246e-001; 4,347415e+002
 5,856046e-001; 4,357361e+002
 5,869846e-001; 4,366958e+002
 5,884846e-001; 4,378039e+002
 5,896846e-001; 4,386589e+002
 5,909446e-001; 4,396187e+002
 5,935847e-001; 4,415032e+002
 5,948446e-001; 4,424368e+002
 5,962846e-001; 4,433878e+002
 5,976647e-001; 4,443650e+002
 5,989846e-001; 4,453334e+002
 6,003646e-001; 4,462932e+002
 6,016246e-001; 4,472529e+002
 6,029446e-001; 4,482301e+002
 6,042047e-001; 4,491898e+002
 6,055846e-001; 4,501670e+002
 6,069046e-001; 4,511442e+002
 6,082246e-001; 4,520952e+002
 6,094846e-001; 4,530724e+002
 6,108646e-001; 4,540408e+002
 6,122446e-001; 4,550354e+002
 6,136246e-001; 4,560126e+002
 6,150047e-001; 4,570247e+002
 6,165046e-001; 4,581240e+002
 6,177046e-001; 4,589529e+002
 6,189646e-001; 4,598864e+002
 6,216046e-001; 4,617448e+002
 6,229846e-001; 4,626784e+002
 6,243047e-001; 4,636120e+002
 6,256247e-001; 4,645368e+002
 6,270046e-001; 4,654878e+002
 6,282646e-001; 4,664214e+002
 6,295846e-001; 4,673898e+002
 6,309046e-001; 4,683321e+002
 6,322846e-001; 4,693005e+002
 6,335446e-001; 4,702865e+002
 6,348646e-001; 4,712636e+002
 6,362447e-001; 4,722234e+002
 6,376246e-001; 4,731918e+002
 6,389446e-001; 4,741690e+002
 6,402046e-001; 4,751026e+002
 6,416447e-001; 4,760536e+002
 6,429046e-001; 4,769871e+002
 6,442846e-001; 4,779469e+002
 6,457247e-001; 4,790200e+002
 6,468647e-001; 4,798489e+002
 6,481847e-001; 4,807650e+002
 6,509447e-001; 4,826583e+002
 6,522647e-001; 4,835918e+002
 6,536446e-001; 4,845079e+002
 6,550246e-001; 4,854502e+002
 6,563447e-001; 4,863489e+002
 6,576647e-001; 4,872824e+002
 6,589246e-001; 4,881985e+002
 6,602446e-001; 4,891408e+002
 6,615646e-001; 4,900744e+002
 6,628847e-001; 4,910254e+002
 6,642047e-001; 4,919677e+002
 6,655246e-001; 4,929187e+002
 6,669046e-001; 4,938522e+002
 6,682246e-001; 4,948120e+002
 6,696046e-001; 4,957804e+002
 6,709846e-001; 4,967227e+002
 6,722446e-001; 4,976650e+002
 6,736246e-001; 4,986247e+002
 6,750046e-001; 4,995845e+002
 6,762646e-001; 5,004919e+002
 6,789646e-001; 5,023851e+002
 6,802846e-001; 5,033012e+002
 6,817246e-001; 5,041999e+002
 6,829847e-001; 5,051422e+002
 6,842446e-001; 5,060496e+002
 6,856246e-001; 5,069744e+002
 6,870046e-001; 5,079080e+002
 6,882646e-001; 5,088590e+002
 6,896446e-001; 5,097925e+002
 6,909646e-001; 5,107435e+002
 6,922846e-001; 5,116596e+002
 6,936646e-001; 5,125932e+002
 6,949846e-001; 5,135093e+002
 6,962447e-001; 5,144341e+002
 6,975646e-001; 5,153416e+002
 6,988846e-001; 5,162751e+002
 7,002046e-001; 5,171825e+002
 7,018246e-001; 5,182294e+002
 7,029046e-001; 5,190408e+002
 7,056046e-001; 5,208730e+002
 7,069246e-001; 5,217805e+002
 7,083046e-001; 5,226879e+002
 7,096246e-001; 5,235952e+002
 7,109447e-001; 5,245114e+002
 7,122647e-001; 5,254274e+002
 7,136446e-001; 5,263523e+002
 7,149646e-001; 5,272596e+002
 7,162846e-001; 5,281671e+002
 7,176046e-001; 5,291006e+002
 7,189246e-001; 5,300255e+002
 7,203046e-001; 5,309677e+002
 7,215647e-001; 5,318838e+002
 7,229446e-001; 5,328523e+002
 7,242646e-001; 5,338120e+002
 7,256446e-001; 5,347630e+002
 7,270246e-001; 5,357053e+002
 7,282847e-001; 5,366563e+002
 7,298446e-001; 5,376946e+002
 7,309846e-001; 5,384973e+002
 7,336246e-001; 5,403120e+002
 7,350046e-001; 5,412543e+002
 7,363246e-001; 5,421791e+002
 7,376446e-001; 5,430691e+002
 7,390246e-001; 5,439939e+002
 7,402846e-001; 5,449274e+002
 7,416046e-001; 5,458087e+002
 7,429246e-001; 5,467161e+002
 7,443047e-001; 5,476758e+002
 7,456246e-001; 5,485832e+002
 7,469446e-001; 5,495167e+002
 7,482646e-001; 5,504852e+002
 7,496446e-001; 5,514100e+002
 7,510246e-001; 5,523087e+002
 7,522846e-001; 5,532597e+002
 7,536047e-001; 5,541583e+002
 7,549247e-001; 5,550745e+002
 7,564246e-001; 5,561039e+002
 7,575646e-001; 5,569241e+002
 7,602646e-001; 5,587651e+002
 7,615846e-001; 5,596637e+002
 7,629646e-001; 5,605886e+002
 7,643446e-001; 5,615046e+002
 7,657246e-001; 5,624382e+002
 7,670446e-001; 5,633194e+002
 7,683046e-001; 5,642006e+002
 7,696846e-001; 5,650818e+002
 7,709447e-001; 5,659805e+002
 7,722646e-001; 5,668704e+002
 7,736446e-001; 5,677778e+002
 7,749046e-001; 5,686939e+002
 7,762246e-001; 5,696100e+002
 7,776046e-001; 5,705174e+002
 7,789246e-001; 5,714510e+002
 7,802446e-001; 5,723496e+002
 7,815647e-001; 5,732745e+002
 7,829446e-001; 5,742080e+002
 7,844446e-001; 5,752375e+002
 7,856447e-001; 5,760315e+002
 7,883446e-001; 5,778550e+002
 7,897246e-001; 5,787537e+002
 7,909246e-001; 5,796349e+002
 7,923647e-001; 5,804986e+002
 7,936246e-001; 5,813449e+002
 7,949446e-001; 5,822261e+002
 7,962646e-001; 5,830899e+002
 7,975847e-001; 5,839799e+002
 7,989047e-001; 5,848436e+002
 8,002846e-001; 5,857335e+002
 8,016046e-001; 5,866322e+002
 8,029246e-001; 5,875396e+002
 8,043046e-001; 5,884208e+002
 8,056846e-001; 5,893369e+002
 8,069446e-001; 5,902617e+002
 8,082646e-001; 5,911517e+002
 8,097646e-001; 5,921463e+002
 8,109646e-001; 5,929490e+002
 8,122846e-001; 5,938389e+002
 8,149247e-001; 5,956013e+002
 8,161846e-001; 5,965000e+002
 8,175646e-001; 5,973812e+002
 8,188846e-001; 5,982798e+002
 8,202646e-001; 5,991785e+002
 8,215846e-001; 6,000684e+002
 8,229646e-001; 6,009322e+002
 8,242846e-001; 6,018221e+002
 8,256646e-001; 6,026946e+002
 8,269846e-001; 6,035671e+002
 8,283046e-001; 6,044483e+002
 8,296247e-001; 6,053295e+002
 8,310046e-001; 6,062020e+002
 8,323246e-001; 6,070919e+002
 8,335846e-001; 6,079382e+002
 8,350247e-001; 6,089329e+002
 8,362246e-001; 6,097355e+002
 8,375446e-001; 6,106255e+002
 8,403046e-001; 6,124402e+002
 8,416246e-001; 6,133302e+002
 8,429446e-001; 6,142114e+002
 8,442646e-001; 6,150751e+002
 8,455846e-001; 6,159564e+002
 8,469647e-001; 6,168289e+002
 8,482246e-001; 6,176839e+002
 8,496046e-001; 6,185564e+002
 8,509846e-001; 6,194114e+002
 8,522446e-001; 6,202577e+002
 8,536246e-001; 6,211127e+002
 8,549446e-001; 6,219765e+002
 8,562647e-001; 6,228315e+002
 8,576446e-001; 6,237215e+002
 8,589646e-001; 6,245678e+002
 8,603446e-001; 6,254402e+002
 8,616046e-001; 6,263302e+002
 8,631046e-001; 6,273248e+002
 8,643046e-001; 6,280665e+002
 8,656246e-001; 6,289825e+002
 8,682646e-001; 6,306752e+002
 8,695846e-001; 6,315477e+002
 8,709046e-001; 6,324376e+002
 8,722847e-001; 6,332926e+002
 8,736047e-001; 6,341826e+002
 8,749246e-001; 6,350725e+002
 8,763046e-001; 6,359188e+002
 8,776246e-001; 6,367651e+002
 8,790047e-001; 6,376463e+002
 8,803246e-001; 6,384752e+002
 8,816446e-001; 6,393302e+002
 8,829646e-001; 6,401852e+002
 8,842846e-001; 6,410316e+002
 8,856046e-001; 6,418604e+002
 8,869246e-001; 6,427416e+002
 8,882446e-001; 6,436141e+002
 8,898046e-001; 6,446349e+002
 8,908846e-001; 6,453940e+002
 8,922646e-001; 6,463013e+002
 8,949046e-001; 6,480376e+002
 8,962246e-001; 6,489188e+002
 8,976046e-001; 6,497913e+002
 8,989246e-001; 6,506376e+002
 9,003646e-001; 6,515450e+002
 9,016246e-001; 6,524088e+002
 9,030046e-001; 6,532725e+002
 9,042646e-001; 6,541188e+002
 9,056447e-001; 6,549651e+002
 9,069646e-001; 6,557591e+002
 9,082246e-001; 6,565792e+002
 9,095446e-001; 6,574081e+002
 9,108647e-001; 6,582457e+002
 9,122446e-001; 6,590920e+002
 9,135646e-001; 6,599645e+002
 9,149446e-001; 6,608282e+002
 9,162647e-001; 6,616745e+002
 9,178246e-001; 6,626517e+002
 9,189046e-001; 6,633759e+002
 9,202246e-001; 6,642222e+002
 9,228646e-001; 6,659410e+002
 9,243046e-001; 6,668047e+002
 9,256246e-001; 6,676685e+002
 9,269446e-001; 6,685235e+002
 9,282646e-001; 6,693611e+002
 9,295846e-001; 6,702161e+002
 9,309046e-001; 6,710363e+002
 9,322847e-001; 6,718738e+002
 9,336047e-001; 6,727027e+002
 9,349246e-001; 6,735316e+002
 9,363046e-001; 6,743604e+002
 9,376246e-001; 6,751719e+002
 9,390046e-001; 6,760007e+002
 9,402646e-001; 6,768209e+002
 9,416446e-001; 6,776323e+002
 9,430847e-001; 6,785571e+002
 9,442247e-001; 6,792638e+002
 9,454846e-001; 6,801014e+002
 9,481846e-001; 6,818115e+002
 9,496247e-001; 6,826840e+002
 9,509446e-001; 6,835651e+002
 9,522646e-001; 6,844376e+002
 9,536446e-001; 6,853014e+002
 9,550246e-001; 6,861477e+002
 9,562846e-001; 6,869853e+002
 9,576046e-001; 6,878491e+002
 9,589247e-001; 6,886517e+002
 9,603046e-001; 6,894806e+002
 9,615646e-001; 6,902833e+002
 9,629446e-001; 6,911121e+002
 9,642646e-001; 6,918886e+002
 9,655846e-001; 6,927175e+002
 9,669646e-001; 6,935377e+002
 9,682246e-001; 6,943752e+002
 9,697846e-001; 6,953437e+002
 9,709246e-001; 6,960853e+002
 9,736246e-001; 6,977604e+002
 9,749447e-001; 6,986155e+002
 9,763246e-001; 6,994618e+002
 9,776446e-001; 7,002994e+002
 9,789646e-001; 7,011719e+002
 9,802846e-001; 7,020182e+002
 9,816046e-001; 7,028645e+002
 9,829246e-001; 7,037021e+002
 9,842446e-001; 7,045659e+002
 9,856246e-001; 7,053947e+002
 9,869446e-001; 7,062497e+002
 9,882646e-001; 7,071047e+002
 9,896446e-001; 7,079685e+002
 9,909647e-001; 7,087886e+002
 9,923446e-001; 7,096349e+002
 9,936646e-001; 7,104551e+002
 9,949246e-001; 7,112578e+002
 9,963046e-001; 7,120518e+002
 9,976246e-001; 7,128806e+002
 1,000265e+000; 7,145383e+002
 1,001585e+000; 7,153585e+002
 1,002905e+000; 7,161873e+002
 1,004165e+000; 7,170249e+002
 1,005545e+000; 7,178712e+002
 1,006925e+000; 7,187175e+002
 1,008305e+000; 7,195726e+002
 1,009625e+000; 7,204363e+002
 1,010945e+000; 7,213000e+002
 1,012325e+000; 7,221289e+002
 1,013705e+000; 7,229490e+002
 1,015025e+000; 7,237953e+002
 1,016285e+000; 7,246155e+002
 1,017605e+000; 7,254008e+002
 1,018985e+000; 7,262209e+002
 1,020305e+000; 7,270497e+002
 1,021625e+000; 7,278524e+002
 1,022945e+000; 7,286551e+002
 1,024445e+000; 7,295800e+002
 1,025585e+000; 7,302780e+002
 1,028285e+000; 7,319269e+002
 1,029665e+000; 7,327471e+002
 1,030925e+000; 7,335934e+002
 1,032245e+000; 7,344310e+002
 1,033625e+000; 7,352511e+002
 1,034945e+000; 7,360800e+002
 1,036265e+000; 7,369350e+002
 1,037645e+000; 7,377639e+002
 1,038905e+000; 7,385665e+002
 1,040285e+000; 7,394041e+002
 1,041545e+000; 7,402504e+002
 1,042865e+000; 7,410356e+002
 1,044245e+000; 7,418558e+002
 1,045565e+000; 7,427108e+002
 1,047005e+000; 7,435135e+002
 1,048325e+000; 7,443249e+002
 1,049705e+000; 7,451538e+002
 1,051025e+000; 7,459478e+002
 1,052465e+000; 7,468464e+002
 1,053605e+000; 7,475618e+002
 1,056365e+000; 7,491846e+002
 1,057745e+000; 7,500048e+002
 1,058945e+000; 7,508075e+002
 1,060205e+000; 7,516364e+002
 1,061525e+000; 7,524303e+002
 1,062905e+000; 7,532592e+002
 1,064225e+000; 7,540880e+002
 1,065605e+000; 7,549343e+002
 1,066985e+000; 7,557545e+002
 1,068365e+000; 7,565920e+002
 1,069625e+000; 7,574122e+002
 1,070945e+000; 7,582061e+002
 1,072265e+000; 7,590176e+002
 1,073585e+000; 7,598290e+002
 1,074965e+000; 7,606317e+002
 1,076285e+000; 7,614431e+002
 1,077545e+000; 7,622457e+002
 1,078925e+000; 7,630309e+002
 1,080425e+000; 7,639122e+002
 1,081625e+000; 7,646276e+002
 1,084325e+000; 7,662417e+002
 1,085705e+000; 7,670444e+002
 1,087025e+000; 7,678558e+002
 1,088285e+000; 7,686236e+002
 1,089665e+000; 7,694350e+002
 1,090925e+000; 7,702377e+002
 1,092245e+000; 7,710229e+002
 1,093565e+000; 7,718256e+002
 1,094885e+000; 7,726283e+002
 1,096265e+000; 7,734397e+002
 1,097585e+000; 7,742249e+002
 1,098905e+000; 7,750712e+002
 1,100285e+000; 7,758740e+002
 1,101665e+000; 7,767028e+002
 1,103045e+000; 7,775229e+002
 1,104365e+000; 7,783082e+002
 1,105685e+000; 7,790672e+002
 1,107005e+000; 7,798612e+002
 1,108265e+000; 7,806202e+002
 1,110965e+000; 7,821820e+002
 1,112285e+000; 7,829672e+002
 1,113545e+000; 7,837437e+002
 1,114925e+000; 7,845377e+002
 1,116185e+000; 7,853317e+002
 1,117565e+000; 7,861256e+002
 1,118885e+000; 7,869370e+002
 1,120265e+000; 7,877484e+002
 1,121645e+000; 7,885686e+002
 1,122965e+000; 7,893800e+002
 1,124345e+000; 7,901827e+002
 1,125665e+000; 7,909679e+002
 1,126925e+000; 7,917444e+002
 1,128305e+000; 7,925297e+002
 1,129625e+000; 7,933149e+002
 1,130945e+000; 7,940914e+002
 1,132325e+000; 7,948854e+002
 1,133585e+000; 7,956619e+002
 1,135025e+000; 7,965256e+002
 1,136225e+000; 7,972149e+002
 1,138985e+000; 7,987766e+002
 1,140365e+000; 7,995619e+002
 1,141685e+000; 8,003384e+002
 1,142945e+000; 8,011149e+002
 1,144265e+000; 8,018652e+002
 1,145585e+000; 8,026505e+002
 1,146905e+000; 8,034357e+002
 1,148225e+000; 8,042122e+002
 1,149605e+000; 8,049887e+002
 1,150865e+000; 8,057827e+002
 1,152245e+000; 8,065767e+002
 1,153565e+000; 8,073619e+002
 1,154945e+000; 8,081646e+002
 1,156265e+000; 8,089585e+002
 1,157705e+000; 8,097350e+002
 1,158965e+000; 8,105290e+002
 1,160345e+000; 8,113229e+002
 1,161665e+000; 8,120733e+002
 1,163045e+000; 8,128236e+002
 1,164305e+000; 8,136089e+002
 1,165625e+000; 8,143330e+002
 1,168265e+000; 8,158250e+002
 1,169585e+000; 8,165753e+002
 1,170905e+000; 8,173082e+002
 1,172225e+000; 8,180847e+002
 1,173605e+000; 8,188612e+002
 1,174925e+000; 8,196378e+002
 1,176305e+000; 8,204230e+002
 1,177625e+000; 8,212082e+002
 1,179005e+000; 8,219847e+002
 1,180325e+000; 8,227438e+002
 1,181585e+000; 8,235115e+002
 1,182845e+000; 8,242706e+002
 1,184285e+000; 8,250471e+002
 1,185545e+000; 8,257800e+002
 1,186985e+000; 8,265565e+002
 1,188305e+000; 8,273069e+002
 1,189685e+000; 8,280485e+002
 1,190885e+000; 8,287901e+002
 1,192205e+000; 8,295404e+002
 1,193585e+000; 8,302733e+002
 1,196345e+000; 8,317827e+002
 1,197605e+000; 8,325330e+002
 1,198925e+000; 8,333008e+002
 1,200305e+000; 8,340511e+002
 1,201565e+000; 8,348102e+002
 1,202885e+000; 8,355605e+002
 1,204205e+000; 8,363196e+002
 1,205585e+000; 8,370787e+002
 1,206905e+000; 8,378378e+002
 1,208225e+000; 8,386230e+002
 1,209545e+000; 8,394169e+002
 1,210925e+000; 8,401934e+002
 1,212305e+000; 8,409962e+002
 1,213685e+000; 8,417552e+002
 1,215005e+000; 8,425230e+002
 1,216265e+000; 8,432646e+002
 1,217645e+000; 8,440150e+002
 1,219145e+000; 8,448525e+002
 1,220345e+000; 8,455244e+002
 1,221605e+000; 8,462485e+002
 1,224365e+000; 8,477491e+002
 1,225565e+000; 8,484646e+002
 1,226945e+000; 8,492062e+002
 1,228145e+000; 8,499565e+002
 1,229585e+000; 8,507069e+002
 1,230905e+000; 8,514747e+002
 1,232285e+000; 8,522424e+002
 1,233605e+000; 8,530190e+002
 1,234985e+000; 8,537955e+002
 1,236305e+000; 8,545545e+002
 1,237625e+000; 8,553136e+002
 1,239005e+000; 8,560814e+002
 1,240265e+000; 8,568143e+002
 1,241585e+000; 8,575820e+002
 1,242905e+000; 8,583499e+002
 1,244285e+000; 8,590740e+002
 1,245605e+000; 8,598156e+002
 1,246925e+000; 8,605485e+002
 1,248245e+000; 8,612814e+002
 1,249625e+000; 8,620056e+002
 1,250945e+000; 8,627210e+002
 1,253645e+000; 8,641955e+002
 1,255085e+000; 8,649196e+002
 1,256285e+000; 8,656351e+002
 1,257605e+000; 8,663767e+002
 1,258925e+000; 8,670921e+002
 1,260185e+000; 8,678337e+002
 1,261565e+000; 8,685579e+002
 1,262945e+000; 8,693082e+002
 1,264205e+000; 8,700411e+002
 1,265585e+000; 8,708002e+002
 1,266845e+000; 8,715331e+002
 1,268225e+000; 8,722747e+002
 1,269545e+000; 8,730076e+002
 1,270925e+000; 8,737841e+002
 1,272305e+000; 8,745257e+002
 1,273625e+000; 8,752585e+002
 1,275005e+000; 8,760002e+002
 1,276325e+000; 8,767244e+002
 1,277825e+000; 8,775445e+002
 1,278965e+000; 8,781639e+002
 1,280285e+000; 8,788881e+002
 1,282985e+000; 8,803277e+002
 1,284305e+000; 8,810519e+002
 1,285625e+000; 8,817586e+002
 1,286945e+000; 8,824827e+002
 1,288265e+000; 8,832331e+002
 1,289585e+000; 8,839834e+002
 1,290965e+000; 8,847076e+002
 1,292345e+000; 8,854579e+002
 1,293665e+000; 8,862083e+002
 1,294985e+000; 8,869237e+002
 1,296245e+000; 8,876478e+002
 1,297565e+000; 8,883807e+002
 1,298885e+000; 8,891136e+002
 1,300265e+000; 8,898378e+002
 1,301585e+000; 8,905532e+002
 1,302965e+000; 8,912861e+002
 1,304285e+000; 8,920103e+002
 1,305605e+000; 8,927432e+002
 1,307165e+000; 8,935458e+002
 1,308305e+000; 8,941827e+002
 1,311005e+000; 8,955875e+002
 1,312265e+000; 8,962855e+002
 1,313645e+000; 8,970009e+002
 1,314965e+000; 8,977163e+002
 1,316285e+000; 8,984405e+002
 1,317605e+000; 8,991733e+002
 1,318925e+000; 8,999063e+002
 1,320305e+000; 9,006304e+002
 1,321565e+000; 9,013546e+002
 1,322945e+000; 9,020787e+002
 1,324265e+000; 9,028116e+002
 1,325645e+000; 9,035358e+002
 1,326965e+000; 9,042687e+002
 1,328345e+000; 9,049754e+002
 1,329665e+000; 9,056908e+002
 1,330985e+000; 9,063888e+002
 1,332305e+000; 9,070781e+002
 1,333625e+000; 9,077586e+002
 1,334945e+000; 9,084828e+002
 1,336265e+000; 9,091720e+002
 1,338965e+000; 9,105593e+002
 1,340285e+000; 9,112660e+002
 1,341605e+000; 9,119640e+002
 1,342925e+000; 9,126794e+002
 1,344305e+000; 9,133774e+002
 1,345565e+000; 9,141190e+002
 1,346945e+000; 9,148431e+002
 1,348265e+000; 9,155411e+002
 1,349645e+000; 9,162653e+002
 1,350965e+000; 9,169633e+002
 1,352285e+000; 9,176788e+002
 1,353545e+000; 9,183767e+002
 1,354985e+000; 9,190660e+002
 1,356245e+000; 9,196942e+002
 1,357625e+000; 9,203572e+002
 1,358945e+000; 9,209680e+002
 1,360265e+000; 9,216049e+002
 1,361645e+000; 9,222680e+002
 1,363145e+000; 9,230445e+002
 1,364285e+000; 9,236291e+002
 1,365665e+000; 9,243009e+002
 1,368365e+000; 9,256445e+002
 1,369625e+000; 9,263076e+002
 1,370945e+000; 9,269969e+002
 1,372265e+000; 9,276862e+002
 1,373645e+000; 9,283754e+002
 1,374965e+000; 9,290646e+002
 1,376285e+000; 9,297888e+002
 1,377545e+000; 9,304868e+002
 1,378865e+000; 9,311935e+002
 1,380305e+000; 9,318915e+002
 1,381625e+000; 9,325982e+002
 1,382945e+000; 9,332875e+002
 1,384265e+000; 9,339680e+002
 1,385585e+000; 9,346835e+002
 1,387025e+000; 9,353727e+002
 1,388345e+000; 9,360707e+002
 1,389665e+000; 9,367599e+002
 1,390985e+000; 9,374667e+002
 1,392485e+000; 9,381996e+002
 1,393625e+000; 9,387754e+002
 1,394945e+000; 9,394385e+002
 1,397585e+000; 9,407123e+002
 1,398905e+000; 9,413929e+002
 1,400225e+000; 9,420908e+002
 1,401545e+000; 9,427888e+002
 1,402985e+000; 9,434781e+002
 1,404305e+000; 9,441935e+002
 1,405685e+000; 9,448741e+002
 1,407005e+000; 9,455634e+002
 1,408265e+000; 9,462177e+002
 1,409585e+000; 9,469244e+002
 1,410965e+000; 9,476049e+002
 1,412345e+000; 9,482767e+002
 1,413665e+000; 9,489311e+002
 1,414925e+000; 9,496029e+002
 1,416245e+000; 9,502485e+002
 1,417565e+000; 9,509203e+002
 1,418885e+000; 9,515834e+002
 1,420505e+000; 9,523425e+002
 1,421645e+000; 9,529271e+002
 1,424285e+000; 9,542271e+002
 1,425605e+000; 9,549164e+002
 1,426985e+000; 9,555795e+002
 1,428305e+000; 9,562338e+002
 1,429625e+000; 9,569318e+002
 1,430945e+000; 9,576036e+002
 1,432325e+000; 9,582667e+002
 1,433585e+000; 9,589211e+002
 1,434905e+000; 9,595929e+002
 1,436225e+000; 9,602473e+002
 1,437545e+000; 9,609191e+002
 1,438925e+000; 9,615734e+002
 1,440365e+000; 9,622627e+002
 1,441625e+000; 9,629258e+002
 1,443005e+000; 9,636150e+002
 1,444265e+000; 9,642694e+002
 1,445645e+000; 9,649238e+002
 1,446965e+000; 9,655781e+002
 1,448285e+000; 9,662412e+002
 1,449665e+000; 9,668694e+002
 1,452305e+000; 9,681606e+002
 1,453625e+000; 9,688063e+002
 1,455005e+000; 9,694606e+002
 1,456265e+000; 9,701063e+002
 1,457645e+000; 9,707869e+002
 1,458965e+000; 9,714500e+002
 1,460285e+000; 9,721304e+002
 1,461605e+000; 9,727935e+002
 1,462985e+000; 9,734828e+002
 1,464305e+000; 9,741546e+002
 1,465625e+000; 9,748177e+002
 1,466945e+000; 9,754808e+002
 1,468265e+000; 9,761439e+002
 1,469645e+000; 9,767983e+002
 1,470965e+000; 9,774614e+002
 1,472285e+000; 9,781245e+002
 1,473605e+000; 9,787701e+002
 1,474925e+000; 9,794244e+002
 1,476305e+000; 9,801050e+002
 1,477625e+000; 9,807419e+002
 1,480385e+000; 9,820244e+002
 1,481645e+000; 9,826788e+002
 1,482965e+000; 9,832983e+002
 1,484285e+000; 9,839439e+002
 1,485605e+000; 9,845983e+002
 1,486925e+000; 9,852875e+002
 1,488245e+000; 9,859332e+002
 1,489565e+000; 9,865788e+002
 1,490885e+000; 9,872332e+002
 1,492265e+000; 9,878962e+002
 1,493585e+000; 9,885506e+002
 1,494905e+000; 9,892137e+002
 1,496285e+000; 9,898855e+002
 1,497605e+000; 9,905486e+002
 1,498985e+000; 9,912117e+002
 1,500365e+000; 9,918486e+002
 1,501625e+000; 9,924855e+002
 1,503125e+000; 9,932009e+002
 1,504265e+000; 9,937593e+002
 1,505645e+000; 9,943875e+002
 1,508285e+000; 9,956352e+002
 1,509605e+000; 9,962546e+002
 1,510925e+000; 9,968741e+002
 1,512245e+000; 9,974849e+002
 1,513565e+000; 9,981218e+002
 1,514885e+000; 9,987674e+002
 1,516265e+000; 9,994305e+002
 1,517645e+000; 1,000076e+003
 1,518905e+000; 1,000739e+003
 1,520285e+000; 1,001376e+003
 1,521545e+000; 1,002030e+003
 1,522865e+000; 1,002659e+003
 1,524245e+000; 1,003313e+003
 1,525565e+000; 1,003950e+003
 1,526945e+000; 1,004596e+003
 1,528265e+000; 1,005232e+003
 1,529645e+000; 1,005869e+003
 1,530965e+000; 1,006515e+003
 1,532405e+000; 1,007222e+003
 1,533665e+000; 1,007771e+003
 1,534925e+000; 1,008417e+003
 1,537685e+000; 1,009630e+003
 1,539005e+000; 1,010232e+003
 1,540265e+000; 1,010851e+003
 1,541525e+000; 1,011445e+003
 1,542905e+000; 1,012047e+003
 1,544285e+000; 1,012701e+003
 1,545545e+000; 1,013355e+003
 1,546925e+000; 1,013984e+003
 1,548245e+000; 1,014620e+003
 1,549625e+000; 1,015284e+003
 1,550945e+000; 1,015912e+003
 1,552265e+000; 1,016514e+003
 1,553705e+000; 1,017124e+003
 1,555025e+000; 1,017770e+003
 1,556225e+000; 1,018372e+003
 1,557665e+000; 1,018974e+003
 1,558925e+000; 1,019594e+003
 1,560305e+000; 1,020222e+003
 1,561805e+000; 1,020885e+003
 1,562945e+000; 1,021400e+003
 1,565585e+000; 1,022604e+003
 1,566965e+000; 1,023197e+003
 1,568225e+000; 1,023808e+003
 1,569605e+000; 1,024436e+003
 1,570985e+000; 1,025055e+003
 1,572245e+000; 1,025666e+003
 1,573625e+000; 1,026294e+003
 1,574945e+000; 1,026914e+003
 1,576265e+000; 1,027551e+003
 1,577645e+000; 1,028161e+003
 1,579025e+000; 1,028790e+003
 1,580285e+000; 1,029409e+003
 1,581605e+000; 1,030037e+003
 1,582925e+000; 1,030639e+003
 1,584245e+000; 1,031241e+003
 1,585625e+000; 1,031852e+003
 1,586885e+000; 1,032471e+003
 1,588445e+000; 1,033161e+003
 1,589645e+000; 1,033684e+003
 1,590965e+000; 1,034312e+003
 1,593665e+000; 1,035490e+003
 1,594925e+000; 1,036075e+003
 1,596245e+000; 1,036633e+003
 1,597565e+000; 1,037235e+003
 1,598945e+000; 1,037837e+003
 1,600265e+000; 1,038422e+003
 1,601585e+000; 1,039032e+003
 1,602905e+000; 1,039635e+003
 1,604225e+000; 1,040228e+003
 1,605545e+000; 1,040865e+003
 1,606925e+000; 1,041484e+003
 1,608305e+000; 1,042095e+003
 1,609685e+000; 1,042732e+003
 1,610945e+000; 1,043377e+003
 1,612325e+000; 1,043971e+003
 1,613705e+000; 1,044564e+003
 1,615085e+000; 1,045157e+003
 1,616345e+000; 1,045751e+003
 1,617785e+000; 1,046379e+003
 1,618985e+000; 1,046885e+003
 1,620305e+000; 1,047478e+003
 1,623005e+000; 1,048630e+003
 1,624265e+000; 1,049232e+003
 1,625645e+000; 1,049799e+003
 1,626965e+000; 1,050410e+003
 1,628285e+000; 1,051012e+003
 1,629665e+000; 1,051579e+003
 1,630985e+000; 1,052190e+003
 1,632245e+000; 1,052809e+003
 1,633625e+000; 1,053376e+003
 1,634885e+000; 1,053952e+003
 1,636325e+000; 1,054598e+003
 1,637585e+000; 1,055165e+003
 1,638965e+000; 1,055714e+003
 1,640285e+000; 1,056316e+003
 1,641605e+000; 1,056910e+003
 1,642925e+000; 1,057486e+003
 1,644305e+000; 1,058053e+003
 1,645685e+000; 1,058672e+003
 1,647185e+000; 1,059318e+003
 1,648325e+000; 1,059841e+003
 1,651025e+000; 1,060941e+003
 1,652285e+000; 1,061482e+003
 1,653665e+000; 1,062040e+003
 1,654925e+000; 1,062590e+003
 1,656305e+000; 1,063157e+003
 1,657625e+000; 1,063750e+003
 1,658945e+000; 1,064326e+003
 1,660205e+000; 1,064910e+003
 1,661585e+000; 1,065469e+003
 1,662965e+000; 1,066045e+003
 1,664225e+000; 1,066638e+003
 1,665605e+000; 1,067240e+003
 1,666985e+000; 1,067807e+003
 1,668365e+000; 1,068400e+003
 1,669625e+000; 1,068967e+003
 1,670945e+000; 1,069535e+003
 1,672265e+000; 1,070084e+003
 1,673645e+000; 1,070651e+003
 1,674965e+000; 1,071201e+003
 1,676285e+000; 1,071777e+003
 1,678925e+000; 1,072876e+003
 1,680365e+000; 1,073443e+003
 1,681625e+000; 1,074010e+003
 1,683005e+000; 1,074560e+003
 1,684325e+000; 1,075136e+003
 1,685645e+000; 1,075720e+003
 1,687085e+000; 1,076261e+003
 1,688285e+000; 1,076837e+003
 1,689665e+000; 1,077422e+003
 1,690985e+000; 1,077989e+003
 1,692305e+000; 1,078547e+003
 1,693625e+000; 1,079149e+003
 1,694945e+000; 1,079699e+003
 1,696265e+000; 1,080257e+003
 1,697525e+000; 1,080833e+003
 1,698905e+000; 1,081418e+003
 1,700465e+000; 1,082011e+003
 1,701665e+000; 1,082543e+003
 1,704365e+000; 1,083677e+003
 1,705745e+000; 1,084192e+003
 1,706945e+000; 1,084751e+003
 1,708205e+000; 1,085283e+003
 1,709585e+000; 1,085815e+003
 1,710965e+000; 1,086365e+003
 1,712285e+000; 1,086923e+003
 1,713545e+000; 1,087482e+003
 1,714925e+000; 1,088040e+003
 1,716245e+000; 1,088590e+003
 1,717565e+000; 1,089157e+003
 1,718885e+000; 1,089741e+003
 1,720265e+000; 1,090308e+003
 1,721705e+000; 1,090902e+003
 1,723025e+000; 1,091451e+003
 1,724345e+000; 1,092027e+003
 1,725845e+000; 1,092664e+003
 1,726925e+000; 1,093135e+003
 1,728305e+000; 1,093711e+003
 1,731005e+000; 1,094819e+003
 1,732265e+000; 1,095351e+003
 1,733585e+000; 1,095875e+003
 1,734905e+000; 1,096381e+003
 1,736225e+000; 1,096931e+003
 1,737605e+000; 1,097480e+003
 1,738925e+000; 1,098056e+003
 1,740365e+000; 1,098606e+003
 1,741685e+000; 1,099147e+003
 1,743005e+000; 1,099688e+003
 1,744265e+000; 1,100202e+003
 1,745585e+000; 1,100726e+003
 1,746905e+000; 1,101276e+003
 1,748225e+000; 1,101816e+003
 1,749605e+000; 1,102366e+003
 1,750925e+000; 1,102916e+003
 1,752245e+000; 1,103457e+003
 1,753565e+000; 1,104006e+003
 1,755125e+000; 1,104635e+003
 1,756325e+000; 1,105106e+003
 1,759025e+000; 1,106196e+003
 1,760345e+000; 1,106711e+003
 1,761725e+000; 1,107243e+003
 1,762985e+000; 1,107767e+003
 1,764305e+000; 1,108299e+003
 1,765625e+000; 1,108788e+003
 1,766945e+000; 1,109328e+003
 1,768265e+000; 1,109835e+003
 1,769645e+000; 1,110341e+003
 1,770905e+000; 1,110855e+003
 1,772165e+000; 1,111405e+003
 1,773665e+000; 1,111911e+003
 1,774925e+000; 1,112452e+003
 1,776245e+000; 1,113002e+003
 1,777625e+000; 1,113543e+003
 1,779185e+000; 1,114153e+003
 1,780325e+000; 1,114616e+003
 1,782905e+000; 1,115654e+003
 1,784225e+000; 1,116186e+003
 1,785545e+000; 1,116710e+003
 1,786985e+000; 1,117216e+003
 1,788305e+000; 1,117748e+003
 1,789625e+000; 1,118254e+003
 1,790945e+000; 1,118760e+003
 1,792205e+000; 1,119275e+003
 1,793645e+000; 1,119790e+003
 1,794965e+000; 1,120287e+003
 1,796285e+000; 1,120810e+003
 1,797605e+000; 1,121325e+003
 1,798985e+000; 1,121840e+003
 1,801565e+000; 1,122843e+003
 1,802885e+000; 1,123358e+003
 1,804205e+000; 1,123873e+003
 1,805585e+000; 1,124361e+003
 1,806905e+000; 1,124885e+003
 1,808225e+000; 1,125417e+003
 1,809545e+000; 1,125941e+003
 1,810925e+000; 1,126447e+003
 1,812245e+000; 1,126996e+003
 1,813685e+000; 1,127520e+003
 1,815125e+000; 1,128113e+003
 1,816265e+000; 1,128567e+003
 1,818965e+000; 1,129570e+003
 1,820285e+000; 1,130085e+003
 1,821605e+000; 1,130582e+003
 1,822925e+000; 1,131045e+003
 1,824305e+000; 1,131542e+003
 1,825625e+000; 1,132039e+003
 1,826885e+000; 1,132545e+003
 1,828145e+000; 1,133034e+003
 1,829525e+000; 1,133575e+003
 1,830905e+000; 1,134081e+003
 1,832285e+000; 1,134613e+003
 1,833605e+000; 1,135119e+003
 1,834925e+000; 1,135669e+003
 1,836305e+000; 1,136157e+003
 1,837625e+000; 1,136672e+003
 1,838945e+000; 1,137187e+003
 1,840385e+000; 1,137763e+003
 1,841585e+000; 1,138208e+003
 1,844345e+000; 1,139229e+003
 1,845605e+000; 1,139708e+003
 1,846925e+000; 1,140188e+003
 1,848305e+000; 1,140668e+003
 1,849625e+000; 1,141166e+003
 1,850945e+000; 1,141645e+003
 1,852265e+000; 1,142151e+003
 1,853645e+000; 1,142640e+003
 1,854965e+000; 1,143111e+003
 1,856285e+000; 1,143608e+003
 1,857545e+000; 1,144080e+003
 1,858865e+000; 1,144551e+003
 1,860245e+000; 1,145065e+003
 1,861505e+000; 1,145589e+003
 1,863005e+000; 1,146069e+003
 1,864205e+000; 1,146592e+003
 1,865585e+000; 1,147098e+003
 1,866905e+000; 1,147587e+003
 1,868285e+000; 1,148076e+003
 1,869605e+000; 1,148582e+003
 1,872305e+000; 1,149568e+003
 1,873625e+000; 1,150047e+003
 1,875005e+000; 1,150536e+003
 1,876325e+000; 1,151025e+003
 1,877645e+000; 1,151496e+003
 1,878905e+000; 1,151949e+003
 1,880285e+000; 1,152429e+003
 1,881605e+000; 1,152918e+003
 1,882925e+000; 1,153398e+003
 1,884245e+000; 1,153886e+003
 1,885625e+000; 1,154384e+003
 1,886885e+000; 1,154855e+003
 1,888265e+000; 1,155326e+003
 1,889645e+000; 1,155832e+003
 1,890965e+000; 1,156347e+003
 1,892285e+000; 1,156853e+003
 1,893785e+000; 1,157385e+003
 1,894985e+000; 1,157830e+003
 1,897565e+000; 1,158746e+003
 1,898885e+000; 1,159200e+003
 1,900325e+000; 1,159706e+003
 1,901585e+000; 1,160159e+003
 1,902965e+000; 1,160648e+003
 1,904285e+000; 1,161110e+003
 1,905605e+000; 1,161590e+003
 1,906985e+000; 1,162035e+003
 1,908305e+000; 1,162498e+003
 1,909625e+000; 1,162960e+003
 1,910945e+000; 1,163440e+003
 1,912325e+000; 1,163894e+003
 1,913645e+000; 1,164382e+003
 1,914965e+000; 1,164845e+003
 1,916285e+000; 1,165325e+003
 1,917605e+000; 1,165804e+003
 1,918925e+000; 1,166276e+003
 1,920425e+000; 1,166799e+003
 1,921565e+000; 1,167235e+003
 1,924265e+000; 1,168151e+003
 1,925645e+000; 1,168631e+003
 1,926965e+000; 1,169111e+003
 1,928345e+000; 1,169591e+003
 1,929665e+000; 1,170036e+003
 1,930985e+000; 1,170525e+003
 1,932305e+000; 1,170978e+003
 1,933625e+000; 1,171432e+003
 1,935005e+000; 1,171859e+003
 1,936265e+000; 1,172331e+003
 1,937645e+000; 1,172758e+003
 1,938965e+000; 1,173203e+003
 1,940285e+000; 1,173666e+003
 1,941545e+000; 1,174145e+003
 1,942925e+000; 1,174608e+003
 1,944305e+000; 1,175079e+003
 1,945625e+000; 1,175550e+003
 1,947125e+000; 1,176074e+003
 1,948265e+000; 1,176492e+003
 1,950965e+000; 1,177426e+003
 1,952345e+000; 1,177888e+003
 1,953605e+000; 1,178333e+003
 1,954925e+000; 1,178804e+003
 1,956245e+000; 1,179258e+003
 1,957565e+000; 1,179729e+003
 1,958945e+000; 1,180200e+003
 1,960265e+000; 1,180680e+003
 1,961705e+000; 1,181117e+003
 1,963025e+000; 1,181596e+003
 1,964345e+000; 1,182033e+003
 1,965665e+000; 1,182478e+003
 1,967045e+000; 1,182888e+003
 1,968425e+000; 1,183341e+003
 1,969625e+000; 1,183743e+003
 1,971005e+000; 1,184196e+003
 1,972205e+000; 1,184641e+003
 1,973585e+000; 1,185095e+003
 1,975085e+000; 1,185592e+003
 1,976225e+000; 1,186011e+003
 1,978925e+000; 1,186927e+003
 1,980305e+000; 1,187398e+003
 1,981625e+000; 1,187861e+003
 1,982945e+000; 1,188323e+003
 1,984265e+000; 1,188777e+003
 1,985645e+000; 1,189222e+003
 1,986965e+000; 1,189658e+003
 1,988285e+000; 1,190094e+003
 1,989605e+000; 1,190557e+003
 1,990985e+000; 1,190967e+003
 1,992365e+000; 1,191394e+003
 1,993685e+000; 1,191813e+003
 1,995005e+000; 1,192232e+003
 1,996265e+000; 1,192616e+003
 1,997585e+000; 1,193043e+003
 1,998965e+000; 1,193488e+003
 2,000225e+000; 1,193942e+003
 2,001545e+000; 1,194378e+003
 2,003165e+000; 1,194902e+003
 2,004305e+000; 1,195321e+003
 2,007005e+000; 1,196176e+003
 2,008265e+000; 1,196612e+003
 2,009585e+000; 1,197022e+003
 2,010905e+000; 1,197449e+003
 2,012285e+000; 1,197859e+003
 2,013605e+000; 1,198296e+003
 2,014925e+000; 1,198723e+003
 2,016245e+000; 1,199160e+003
 2,017505e+000; 1,199570e+003
 2,018945e+000; 1,199997e+003
 2,020265e+000; 1,200407e+003
 2,021645e+000; 1,200817e+003
 2,022905e+000; 1,201236e+003
 2,024285e+000; 1,201646e+003
 2,025665e+000; 1,202065e+003
 2,026985e+000; 1,202501e+003
 2,028425e+000; 1,202972e+003
 2,029625e+000; 1,203365e+003
 2,030945e+000; 1,203810e+003
 2,033585e+000; 1,204656e+003
 2,034905e+000; 1,205075e+003
 2,036285e+000; 1,205520e+003
 2,037605e+000; 1,205912e+003
 2,038925e+000; 1,206349e+003
 2,040305e+000; 1,206785e+003
 2,041625e+000; 1,207204e+003
 2,042945e+000; 1,207614e+003
 2,044325e+000; 1,208033e+003
 2,045585e+000; 1,208443e+003
 2,046965e+000; 1,208844e+003
 2,048285e+000; 1,209237e+003
 2,049605e+000; 1,209638e+003
 2,050925e+000; 1,210048e+003
 2,052305e+000; 1,210449e+003
 2,053625e+000; 1,210842e+003
 2,054945e+000; 1,211278e+003
 2,056205e+000; 1,211680e+003
 2,057765e+000; 1,212160e+003
 2,058965e+000; 1,212526e+003
 2,061545e+000; 1,213381e+003
 2,062985e+000; 1,213817e+003
 2,064305e+000; 1,214227e+003
 2,065565e+000; 1,214664e+003
 2,066885e+000; 1,215082e+003
 2,068265e+000; 1,215510e+003
 2,069585e+000; 1,215911e+003
 2,070965e+000; 1,216313e+003
 2,072225e+000; 1,216731e+003
 2,073605e+000; 1,217124e+003
 2,074985e+000; 1,217534e+003
 2,076305e+000; 1,217927e+003
 2,077625e+000; 1,218337e+003
 2,078945e+000; 1,218721e+003
 2,080385e+000; 1,219131e+003
 2,081705e+000; 1,219506e+003
 2,083085e+000; 1,219951e+003
 2,084225e+000; 1,220300e+003
 2,085545e+000; 1,220701e+003
 2,088245e+000; 1,221486e+003
 2,089625e+000; 1,221896e+003
 2,090885e+000; 1,222307e+003
 2,092205e+000; 1,222708e+003
 2,093525e+000; 1,223100e+003
 2,094965e+000; 1,223528e+003
 2,096285e+000; 1,223947e+003
 2,097605e+000; 1,224357e+003
 2,098985e+000; 1,224749e+003
 2,100305e+000; 1,225177e+003
 2,101565e+000; 1,225578e+003
 2,103005e+000; 1,225971e+003
 2,104325e+000; 1,226337e+003
 2,105645e+000; 1,226730e+003
 2,106965e+000; 1,227088e+003
 2,108225e+000; 1,227463e+003
 2,109545e+000; 1,227829e+003
 2,110925e+000; 1,228239e+003
 2,112305e+000; 1,228632e+003
 2,113625e+000; 1,229025e+003
 2,114885e+000; 1,229417e+003
 2,117645e+000; 1,230203e+003
 2,118905e+000; 1,230595e+003
 2,120225e+000; 1,231005e+003
 2,121545e+000; 1,231389e+003
 2,122865e+000; 1,231764e+003
 2,124305e+000; 1,232157e+003
 2,125565e+000; 1,232541e+003
 2,126945e+000; 1,232916e+003
 2,128265e+000; 1,233317e+003
 2,129645e+000; 1,233692e+003
 2,130905e+000; 1,234085e+003
 2,132285e+000; 1,234460e+003
 2,133605e+000; 1,234844e+003
 2,134985e+000; 1,235211e+003
 2,136305e+000; 1,235577e+003
 2,137805e+000; 1,235996e+003
 2,138945e+000; 1,236310e+003
 2,140265e+000; 1,236668e+003
 2,142905e+000; 1,237409e+003
 2,144285e+000; 1,237784e+003
 2,145605e+000; 1,238160e+003
 2,146865e+000; 1,238535e+003
 2,148185e+000; 1,238927e+003
 2,149565e+000; 1,239320e+003
 2,150945e+000; 1,239713e+003
 2,152265e+000; 1,240088e+003
 2,153645e+000; 1,240498e+003
 2,155025e+000; 1,240847e+003
 2,156285e+000; 1,241222e+003
 2,157545e+000; 1,241580e+003
 2,158925e+000; 1,241964e+003
 2,160245e+000; 1,242321e+003
 2,161625e+000; 1,242714e+003
 2,162945e+000; 1,243045e+003
 2,164265e+000; 1,243438e+003
 2,165765e+000; 1,243831e+003
 2,166905e+000; 1,244162e+003
 2,168285e+000; 1,244529e+003
 2,170925e+000; 1,245288e+003
 2,172305e+000; 1,245680e+003
 2,173625e+000; 1,246056e+003
 2,175005e+000; 1,246439e+003
 2,176325e+000; 1,246806e+003
 2,177645e+000; 1,247207e+003
 2,178965e+000; 1,247582e+003
 2,180285e+000; 1,247966e+003
 2,181605e+000; 1,248341e+003
 2,182925e+000; 1,248734e+003
 2,184245e+000; 1,249083e+003
 2,185625e+000; 1,249458e+003
 2,187005e+000; 1,249825e+003
 2,188265e+000; 1,250191e+003
 2,189645e+000; 1,250557e+003
 2,191025e+000; 1,250941e+003
 2,192345e+000; 1,251282e+003
 2,193725e+000; 1,251639e+003
 2,194985e+000; 1,251988e+003
 2,196245e+000; 1,252329e+003
 2,197625e+000; 1,252686e+003
 2,200325e+000; 1,253402e+003
 2,201525e+000; 1,253760e+003
 2,202905e+000; 1,254126e+003
 2,204225e+000; 1,254510e+003
 2,205605e+000; 1,254902e+003
 2,206925e+000; 1,255286e+003
 2,208305e+000; 1,255661e+003
 2,209625e+000; 1,256054e+003
 2,211005e+000; 1,256394e+003
 2,212265e+000; 1,256770e+003
 2,213705e+000; 1,257136e+003
 2,214965e+000; 1,257502e+003
 2,216345e+000; 1,257851e+003
 2,217605e+000; 1,258209e+003
 2,218985e+000; 1,258541e+003
 2,220305e+000; 1,258881e+003
 2,221625e+000; 1,259230e+003
 2,223005e+000; 1,259544e+003
 2,224265e+000; 1,259884e+003
 2,225645e+000; 1,260233e+003
 2,226905e+000; 1,260574e+003
 2,229605e+000; 1,261280e+003
 2,230985e+000; 1,261629e+003
 2,232305e+000; 1,261970e+003
 2,233625e+000; 1,262336e+003
 2,234885e+000; 1,262694e+003
 2,236265e+000; 1,263043e+003
 2,237645e+000; 1,263392e+003
 2,239025e+000; 1,263732e+003
 2,240285e+000; 1,264064e+003
 2,241545e+000; 1,264421e+003
 2,242985e+000; 1,264762e+003
 2,244305e+000; 1,265119e+003
 2,245625e+000; 1,265486e+003
 2,247005e+000; 1,265835e+003
 2,248325e+000; 1,266157e+003
 2,249765e+000; 1,266480e+003
 2,250965e+000; 1,266803e+003
 2,252525e+000; 1,267143e+003
 2,253665e+000; 1,267431e+003
 2,254925e+000; 1,267754e+003
 2,257625e+000; 1,268435e+003
 2,258945e+000; 1,268784e+003
 2,260205e+000; 1,269089e+003
 2,261525e+000; 1,269447e+003
 2,262905e+000; 1,269778e+003
 2,264285e+000; 1,270145e+003
 2,265605e+000; 1,270468e+003
 2,267045e+000; 1,270825e+003
 2,268365e+000; 1,271157e+003
 2,269565e+000; 1,271488e+003
 2,270945e+000; 1,271794e+003
 2,272265e+000; 1,272160e+003
 2,273645e+000; 1,272483e+003
 2,275025e+000; 1,272806e+003
 2,276285e+000; 1,273120e+003
 2,277545e+000; 1,273443e+003
 2,278985e+000; 1,273739e+003
 2,280305e+000; 1,274071e+003
 2,281805e+000; 1,274437e+003
 2,283005e+000; 1,274708e+003
 2,285645e+000; 1,275362e+003
 2,287025e+000; 1,275685e+003
 2,288345e+000; 1,276008e+003
 2,289665e+000; 1,276348e+003
 2,290925e+000; 1,276662e+003
 2,292305e+000; 1,276985e+003
 2,293625e+000; 1,277290e+003
 2,294945e+000; 1,277604e+003
 2,296265e+000; 1,277919e+003
 2,297525e+000; 1,278250e+003
 2,298905e+000; 1,278556e+003
 2,300285e+000; 1,278878e+003
 2,301605e+000; 1,279227e+003
 2,302985e+000; 1,279559e+003
 2,304365e+000; 1,279873e+003
 2,305745e+000; 1,280187e+003
 2,306945e+000; 1,280492e+003
 2,308445e+000; 1,280807e+003
 2,309645e+000; 1,281060e+003
 2,310965e+000; 1,281365e+003
 2,313605e+000; 1,281976e+003
 2,314865e+000; 1,282281e+003
 2,316185e+000; 1,282613e+003
 2,317565e+000; 1,282909e+003
 2,318945e+000; 1,283241e+003
 2,320265e+000; 1,283546e+003
 2,321645e+000; 1,283852e+003
 2,322905e+000; 1,284183e+003
 2,324345e+000; 1,284488e+003
 2,325665e+000; 1,284794e+003
 2,326925e+000; 1,285117e+003
 2,328305e+000; 1,285439e+003
 2,329625e+000; 1,285719e+003
 2,331005e+000; 1,286024e+003
 2,332265e+000; 1,286329e+003
 2,333585e+000; 1,286591e+003
 2,334905e+000; 1,286879e+003
 2,336405e+000; 1,287219e+003
 2,337605e+000; 1,287481e+003
 2,338985e+000; 1,287778e+003
 2,341685e+000; 1,288406e+003
 2,343005e+000; 1,288694e+003
 2,344265e+000; 1,288990e+003
 2,345645e+000; 1,289287e+003
 2,346905e+000; 1,289566e+003
 2,348285e+000; 1,289880e+003
 2,349605e+000; 1,290194e+003
 2,350925e+000; 1,290482e+003
 2,352245e+000; 1,290770e+003
 2,353625e+000; 1,291093e+003
 2,354945e+000; 1,291372e+003
 2,356265e+000; 1,291669e+003
 2,357645e+000; 1,292000e+003
 2,359025e+000; 1,292288e+003
 2,360405e+000; 1,292576e+003
 2,361665e+000; 1,292864e+003
 2,363045e+000; 1,293143e+003
 2,364365e+000; 1,293388e+003
 2,365805e+000; 1,293693e+003
 2,366945e+000; 1,293946e+003
 2,368265e+000; 1,294225e+003
 2,370905e+000; 1,294784e+003
 2,372225e+000; 1,295089e+003
 2,373605e+000; 1,295368e+003
 2,374925e+000; 1,295665e+003
 2,376245e+000; 1,295962e+003
 2,377625e+000; 1,296258e+003
 2,379005e+000; 1,296520e+003
 2,380265e+000; 1,296808e+003
 2,381585e+000; 1,297096e+003
 2,382845e+000; 1,297366e+003
 2,384285e+000; 1,297654e+003
 2,385605e+000; 1,297960e+003
 2,386925e+000; 1,298221e+003
 2,388365e+000; 1,298483e+003
 2,389625e+000; 1,298754e+003
 2,390945e+000; 1,299024e+003
 2,392265e+000; 1,299268e+003
 2,393585e+000; 1,299539e+003
 2,394965e+000; 1,299809e+003
 2,396285e+000; 1,300080e+003
 2,398925e+000; 1,300638e+003
 2,400305e+000; 1,300909e+003
 2,401625e+000; 1,301170e+003
 2,402885e+000; 1,301467e+003
 2,404205e+000; 1,301720e+003
 2,405645e+000; 1,302034e+003
 2,406905e+000; 1,302322e+003
 2,408225e+000; 1,302627e+003
 2,409545e+000; 1,302906e+003
 2,410865e+000; 1,303212e+003
 2,412305e+000; 1,303482e+003
 2,413685e+000; 1,303797e+003
 2,414945e+000; 1,304076e+003
 2,416385e+000; 1,304346e+003
 2,417645e+000; 1,304608e+003
 2,418965e+000; 1,304878e+003
 2,420285e+000; 1,305140e+003
 2,421845e+000; 1,305428e+003
 2,422985e+000; 1,305664e+003
 2,424305e+000; 1,305943e+003
 2,426945e+000; 1,306449e+003
 2,428265e+000; 1,306711e+003
 2,429585e+000; 1,306999e+003
 2,430905e+000; 1,307278e+003
 2,432225e+000; 1,307574e+003
 2,433605e+000; 1,307836e+003
 2,434985e+000; 1,308150e+003
 2,436305e+000; 1,308421e+003
 2,437625e+000; 1,308682e+003
 2,439005e+000; 1,308979e+003
 2,440265e+000; 1,309276e+003
 2,441645e+000; 1,309529e+003
 2,442965e+000; 1,309799e+003
 2,444285e+000; 1,310078e+003
 2,445605e+000; 1,310323e+003
 2,446925e+000; 1,310584e+003
 2,448305e+000; 1,310837e+003
 2,449625e+000; 1,311090e+003
 2,451125e+000; 1,311387e+003
 2,452325e+000; 1,311614e+003
 2,453645e+000; 1,311867e+003
 2,456285e+000; 1,312382e+003
 2,457545e+000; 1,312626e+003
 2,458865e+000; 1,312888e+003
 2,460245e+000; 1,313158e+003
 2,461565e+000; 1,313411e+003
 2,462945e+000; 1,313708e+003
 2,464265e+000; 1,313943e+003
 2,465585e+000; 1,314223e+003
 2,466905e+000; 1,314476e+003
 2,468225e+000; 1,314755e+003
 2,469605e+000; 1,314999e+003
 2,470925e+000; 1,315278e+003
 2,472305e+000; 1,315549e+003
 2,473685e+000; 1,315819e+003
 2,475065e+000; 1,316072e+003
 2,476325e+000; 1,316308e+003
 2,477885e+000; 1,316587e+003
 2,478965e+000; 1,316788e+003
 2,480345e+000; 1,317006e+003
 2,482985e+000; 1,317486e+003
 2,484245e+000; 1,317730e+003
 2,485685e+000; 1,317974e+003
 2,486885e+000; 1,318245e+003
 2,488205e+000; 1,318498e+003
 2,489585e+000; 1,318760e+003
 2,490965e+000; 1,319004e+003
 2,492285e+000; 1,319248e+003
 2,493605e+000; 1,319475e+003
 2,494985e+000; 1,319745e+003
 2,496245e+000; 1,319955e+003
 2,497565e+000; 1,320199e+003
 2,498885e+000; 1,320452e+003
 2,500265e+000; 1,320705e+003
 2,501645e+000; 1,320949e+003
 2,502905e+000; 1,321185e+003
 2,504285e+000; 1,321438e+003
 2,505785e+000; 1,321691e+003
 2,506925e+000; 1,321892e+003
 2,509685e+000; 1,322354e+003
 2,510945e+000; 1,322572e+003
 2,512265e+000; 1,322808e+003
 2,513645e+000; 1,323043e+003
 2,514905e+000; 1,323279e+003
 2,516285e+000; 1,323523e+003
 2,517605e+000; 1,323759e+003
 2,518985e+000; 1,323977e+003
 2,520305e+000; 1,324230e+003
 2,521625e+000; 1,324448e+003
 2,522945e+000; 1,324701e+003
 2,524265e+000; 1,324945e+003
 2,525645e+000; 1,325190e+003
 2,526965e+000; 1,325417e+003
 2,528345e+000; 1,325661e+003
 2,529665e+000; 1,325870e+003
 2,530985e+000; 1,326071e+003
 2,532305e+000; 1,326307e+003
 2,533745e+000; 1,326568e+003
 2,534945e+000; 1,326769e+003
 2,537645e+000; 1,327223e+003
 2,538965e+000; 1,327415e+003
 2,540285e+000; 1,327615e+003
 2,541545e+000; 1,327842e+003
 2,542925e+000; 1,328069e+003
 2,544245e+000; 1,328287e+003
 2,545625e+000; 1,328531e+003
 2,546945e+000; 1,328750e+003
 2,548265e+000; 1,328968e+003
 2,549585e+000; 1,329212e+003
 2,550965e+000; 1,329430e+003
 2,552285e+000; 1,329648e+003
 2,553605e+000; 1,329892e+003
 2,554985e+000; 1,330102e+003
 2,556305e+000; 1,330311e+003
 2,557625e+000; 1,330529e+003
 2,558945e+000; 1,330748e+003
 2,560265e+000; 1,330983e+003
 2,561645e+000; 1,331201e+003
 2,562965e+000; 1,331402e+003
 2,565665e+000; 1,331838e+003
 2,566985e+000; 1,332021e+003
 2,568365e+000; 1,332248e+003
 2,569625e+000; 1,332475e+003
 2,570945e+000; 1,332693e+003
 2,572265e+000; 1,332911e+003
 2,573585e+000; 1,333129e+003
 2,574905e+000; 1,333330e+003
 2,576285e+000; 1,333531e+003
 2,577545e+000; 1,333766e+003
 2,578925e+000; 1,333976e+003
 2,580305e+000; 1,334211e+003
 2,581685e+000; 1,334438e+003
 2,582945e+000; 1,334665e+003
 2,584325e+000; 1,334866e+003
 2,585585e+000; 1,335058e+003
 2,587025e+000; 1,335250e+003
 2,588285e+000; 1,335450e+003
 2,589785e+000; 1,335703e+003
 2,590985e+000; 1,335843e+003
 2,592365e+000; 1,336035e+003
 2,595065e+000; 1,336401e+003
 2,596265e+000; 1,336584e+003
 2,597585e+000; 1,336776e+003
 2,598905e+000; 1,336986e+003
 2,600225e+000; 1,337195e+003
 2,601605e+000; 1,337396e+003
 2,602985e+000; 1,337588e+003
 2,604305e+000; 1,337815e+003
 2,605685e+000; 1,338015e+003
 2,606945e+000; 1,338190e+003
 2,608205e+000; 1,338382e+003
 2,609585e+000; 1,338582e+003
 2,610905e+000; 1,338748e+003
 2,612345e+000; 1,338949e+003
 2,613665e+000; 1,339158e+003
 2,614985e+000; 1,339341e+003
 2,616245e+000; 1,339533e+003
 2,617625e+000; 1,339725e+003
 2,620325e+000; 1,340066e+003
 2,621645e+000; 1,340240e+003
 2,622965e+000; 1,340432e+003
 2,624345e+000; 1,340598e+003
 2,625665e+000; 1,340799e+003
 2,626925e+000; 1,340964e+003
 2,628245e+000; 1,341147e+003
 2,629625e+000; 1,341305e+003
 2,630945e+000; 1,341505e+003
 2,632265e+000; 1,341671e+003
 2,633585e+000; 1,341880e+003
 2,634905e+000; 1,342090e+003
 2,636225e+000; 1,342282e+003
 2,637545e+000; 1,342482e+003
 2,638925e+000; 1,342692e+003
 2,640305e+000; 1,342866e+003
 2,641685e+000; 1,343041e+003
 2,643005e+000; 1,343215e+003
 2,644325e+000; 1,343390e+003
 2,645645e+000; 1,343564e+003
 2,646905e+000; 1,343721e+003
 2,649605e+000; 1,344079e+003
 2,650925e+000; 1,344236e+003
 2,652305e+000; 1,344411e+003
 2,653625e+000; 1,344594e+003
 2,654945e+000; 1,344795e+003
 2,656205e+000; 1,344952e+003
 2,657645e+000; 1,345144e+003
 2,658965e+000; 1,345318e+003
 2,660285e+000; 1,345501e+003
 2,661605e+000; 1,345676e+003
 2,662985e+000; 1,345885e+003
 2,664305e+000; 1,346077e+003
 2,665625e+000; 1,346260e+003
 2,666945e+000; 1,346461e+003
 2,668265e+000; 1,346653e+003
 2,669585e+000; 1,346810e+003
 2,671145e+000; 1,347019e+003
 2,672225e+000; 1,347185e+003
 2,673605e+000; 1,347360e+003
 2,676305e+000; 1,347726e+003
 2,677625e+000; 1,347901e+003
 2,679005e+000; 1,348040e+003
 2,680385e+000; 1,348206e+003
 2,681645e+000; 1,348372e+003
 2,682965e+000; 1,348511e+003
 2,684225e+000; 1,348660e+003
 2,685605e+000; 1,348825e+003
 2,686925e+000; 1,349000e+003
 2,688305e+000; 1,349148e+003
 2,689625e+000; 1,349323e+003
 2,690885e+000; 1,349497e+003
 2,692265e+000; 1,349689e+003
 2,693585e+000; 1,349829e+003
 2,694905e+000; 1,350038e+003
 2,696225e+000; 1,350195e+003
 2,697785e+000; 1,350396e+003
 2,698985e+000; 1,350535e+003
 2,701625e+000; 1,350867e+003
 2,703065e+000; 1,351042e+003
 2,704265e+000; 1,351190e+003
 2,705645e+000; 1,351338e+003
 2,706905e+000; 1,351443e+003
 2,708345e+000; 1,351609e+003
 2,709545e+000; 1,351748e+003
 2,710925e+000; 1,351896e+003
 2,712305e+000; 1,352036e+003
 2,713625e+000; 1,352202e+003
 2,715005e+000; 1,352350e+003
 2,716265e+000; 1,352507e+003
 2,717645e+000; 1,352656e+003
 2,718905e+000; 1,352813e+003
 2,720225e+000; 1,352952e+003
 2,721545e+000; 1,353118e+003
 2,722925e+000; 1,353258e+003
 2,724245e+000; 1,353432e+003
 2,725805e+000; 1,353598e+003
 2,726945e+000; 1,353755e+003
 2,729645e+000; 1,354034e+003
 2,730905e+000; 1,354156e+003
 2,732225e+000; 1,354305e+003
 2,733605e+000; 1,354435e+003
 2,734985e+000; 1,354593e+003
 2,736305e+000; 1,354715e+003
 2,737685e+000; 1,354845e+003
 2,739005e+000; 1,354968e+003
 2,740265e+000; 1,355090e+003
 2,741585e+000; 1,355203e+003
 2,742845e+000; 1,355317e+003
 2,744225e+000; 1,355465e+003
 2,745545e+000; 1,355596e+003
 2,746925e+000; 1,355744e+003
 2,748185e+000; 1,355892e+003
 2,749625e+000; 1,356041e+003
 2,751125e+000; 1,356198e+003
 2,752265e+000; 1,356320e+003
 2,753705e+000; 1,356442e+003
 2,756345e+000; 1,356721e+003
 2,757605e+000; 1,356844e+003
 2,758925e+000; 1,356948e+003
 2,760245e+000; 1,357088e+003
 2,761625e+000; 1,357166e+003
 2,762885e+000; 1,357271e+003
 2,764265e+000; 1,357384e+003
 2,765585e+000; 1,357489e+003
 2,766965e+000; 1,357594e+003
 2,768285e+000; 1,357725e+003
 2,769545e+000; 1,357856e+003
 2,770925e+000; 1,357969e+003
 2,772245e+000; 1,358109e+003
 2,773625e+000; 1,358205e+003
 2,774945e+000; 1,358335e+003
 2,776325e+000; 1,358466e+003
 2,777645e+000; 1,358580e+003
 2,779025e+000; 1,358693e+003
 2,780525e+000; 1,358859e+003
 2,781605e+000; 1,358964e+003
 2,784305e+000; 1,359173e+003
 2,785565e+000; 1,359295e+003
 2,786885e+000; 1,359391e+003
 2,788205e+000; 1,359496e+003
 2,789645e+000; 1,359583e+003
 2,791025e+000; 1,359714e+003
 2,792345e+000; 1,359810e+003
 2,793665e+000; 1,359897e+003
 2,794985e+000; 1,359984e+003
 2,796245e+000; 1,360089e+003
 2,797565e+000; 1,360176e+003
 2,798945e+000; 1,360281e+003
 2,800265e+000; 1,360395e+003
 2,801585e+000; 1,360490e+003
 2,802905e+000; 1,360613e+003
 2,804165e+000; 1,360709e+003
 2,805725e+000; 1,360813e+003
 2,806925e+000; 1,360918e+003
 2,808305e+000; 1,361040e+003
 2,811005e+000; 1,361258e+003
 2,812325e+000; 1,361363e+003
 2,813705e+000; 1,361459e+003
 2,815025e+000; 1,361546e+003
 2,816345e+000; 1,361651e+003
 2,817665e+000; 1,361729e+003
 2,818985e+000; 1,361817e+003
 2,820305e+000; 1,361895e+003
 2,821685e+000; 1,361965e+003
 2,823005e+000; 1,362043e+003
 2,824265e+000; 1,362113e+003
 2,825645e+000; 1,362183e+003
 2,826905e+000; 1,362270e+003
 2,828285e+000; 1,362366e+003
 2,829665e+000; 1,362436e+003
 2,831045e+000; 1,362515e+003
 2,832245e+000; 1,362584e+003
 2,833745e+000; 1,362680e+003
 2,834945e+000; 1,362750e+003
 2,837645e+000; 1,362925e+003
 2,838965e+000; 1,362986e+003
 2,840285e+000; 1,363047e+003
 2,841545e+000; 1,363117e+003
 2,842925e+000; 1,363178e+003
 2,844245e+000; 1,363248e+003
 2,845625e+000; 1,363326e+003
 2,847005e+000; 1,363405e+003
 2,848385e+000; 1,363474e+003
 2,849765e+000; 1,363544e+003
 2,851085e+000; 1,363588e+003
 2,852345e+000; 1,363649e+003
 2,853725e+000; 1,363684e+003
 2,854985e+000; 1,363719e+003
 2,856305e+000; 1,363745e+003
 2,857625e+000; 1,363797e+003
 2,858945e+000; 1,363806e+003
 2,860205e+000; 1,363867e+003
 2,861525e+000; 1,363911e+003
 2,862905e+000; 1,363980e+003
 2,865605e+000; 1,364129e+003
 2,866985e+000; 1,364146e+003
 2,868365e+000; 1,364190e+003
 2,869625e+000; 1,364216e+003
 2,870945e+000; 1,364260e+003
 2,872205e+000; 1,364268e+003
 2,873585e+000; 1,364321e+003
 2,874965e+000; 1,364338e+003
 2,876285e+000; 1,364347e+003
 2,877545e+000; 1,364373e+003
 2,878925e+000; 1,364382e+003
 2,880305e+000; 1,364391e+003
 2,881565e+000; 1,364425e+003
 2,883005e+000; 1,364469e+003
 2,884265e+000; 1,364495e+003
 2,885645e+000; 1,364539e+003
 2,887025e+000; 1,364574e+003
 2,888345e+000; 1,364582e+003
 2,889845e+000; 1,364582e+003
 2,890985e+000; 1,364591e+003
 2,892365e+000; 1,364609e+003
 2,894945e+000; 1,364626e+003
 2,896205e+000; 1,364644e+003
 2,897585e+000; 1,364661e+003
 2,898965e+000; 1,364670e+003
 2,900345e+000; 1,364678e+003
 2,901665e+000; 1,364713e+003
 2,902985e+000; 1,364696e+003
 2,904425e+000; 1,364687e+003
 2,905685e+000; 1,364652e+003
 2,906945e+000; 1,364617e+003
 2,908265e+000; 1,364582e+003
 2,909645e+000; 1,364582e+003
 2,910965e+000; 1,364565e+003
 2,912225e+000; 1,364565e+003
 2,913605e+000; 1,364556e+003
 2,914925e+000; 1,364521e+003
 2,916185e+000; 1,364478e+003
 2,917565e+000; 1,364460e+003
 2,919065e+000; 1,364443e+003
 2,920265e+000; 1,364425e+003
 2,921645e+000; 1,364391e+003
 2,924345e+000; 1,364329e+003
 2,925725e+000; 1,364277e+003
 2,926985e+000; 1,364216e+003
 2,928365e+000; 1,364155e+003
 2,929625e+000; 1,364059e+003
 2,931005e+000; 1,363989e+003
 2,932265e+000; 1,363902e+003
 2,933585e+000; 1,363806e+003
 2,934845e+000; 1,363736e+003
 2,936225e+000; 1,363658e+003
 2,937605e+000; 1,363570e+003
 2,938925e+000; 1,363501e+003
 2,940305e+000; 1,363439e+003
 2,941685e+000; 1,363326e+003
 2,943005e+000; 1,363221e+003
 2,944205e+000; 1,363134e+003
 2,945585e+000; 1,363038e+003
 2,946965e+000; 1,362907e+003
 2,948285e+000; 1,362838e+003
 2,949605e+000; 1,362741e+003
 2,951105e+000; 1,362593e+003
 2,952245e+000; 1,362489e+003
 2,953625e+000; 1,362384e+003
 2,954945e+000; 1,362227e+003
 2,957645e+000; 1,361982e+003
 2,959085e+000; 1,361834e+003
 2,960405e+000; 1,361660e+003
 2,961605e+000; 1,361511e+003
 2,962985e+000; 1,361311e+003
 2,964305e+000; 1,361084e+003
 2,965565e+000; 1,360901e+003
 2,966945e+000; 1,360700e+003
 2,968265e+000; 1,360482e+003
 2,969645e+000; 1,360264e+003
 2,970905e+000; 1,360089e+003
 2,972225e+000; 1,359871e+003
 2,973545e+000; 1,359679e+003
 2,974925e+000; 1,359470e+003
 2,976365e+000; 1,359278e+003
 2,977625e+000; 1,359033e+003
 2,978945e+000; 1,358789e+003
 2,980325e+000; 1,358519e+003
 2,981585e+000; 1,358240e+003
 2,982845e+000; 1,357960e+003
 2,985545e+000; 1,357384e+003
 2,986925e+000; 1,357079e+003
 2,988305e+000; 1,356765e+003
 2,989685e+000; 1,356416e+003
 2,990945e+000; 1,356032e+003
 2,992265e+000; 1,355657e+003
 2,993645e+000; 1,355264e+003
 2,994905e+000; 1,354845e+003
 2,996285e+000; 1,354409e+003
 2,997605e+000; 1,353999e+003
 2,998925e+000; 1,353528e+003
 3,000305e+000; 1,353057e+003
 3,001565e+000; 1,352577e+003
 3,002945e+000; 1,352089e+003
 3,004265e+000; 1,351547e+003
 3,005645e+000; 1,351059e+003
 3,006905e+000; 1,350509e+003
 3,008225e+000; 1,349933e+003
 3,009725e+000; 1,349288e+003
 3,010925e+000; 1,348773e+003
 3,012305e+000; 1,348145e+003
 3,015005e+000; 1,346845e+003
 3,016385e+000; 1,346129e+003
 3,017645e+000; 1,345379e+003
 3,019025e+000; 1,344568e+003
 3,020285e+000; 1,343713e+003
 3,021605e+000; 1,342831e+003
 3,022985e+000; 1,341907e+003
 3,024305e+000; 1,340921e+003
 3,025625e+000; 1,339917e+003
 3,026885e+000; 1,338853e+003
 3,028205e+000; 1,337736e+003
 3,029585e+000; 1,336567e+003
 3,030905e+000; 1,335345e+003
 3,032285e+000; 1,334028e+003
 3,033605e+000; 1,332641e+003
 3,034985e+000; 1,331184e+003
 3,036365e+000; 1,329596e+003
 3,037865e+000; 1,327668e+003
 3,038945e+000; 1,326080e+003
 3,040265e+000; 1,324125e+003
 3,042965e+000; 1,319789e+003
 3,044285e+000; 1,317372e+003
 3,045665e+000; 1,314790e+003
 3,046925e+000; 1,312015e+003
 3,048305e+000; 1,308979e+003
 3,049565e+000; 1,305603e+003
 3,051005e+000; 1,301886e+003
 3,052325e+000; 1,297785e+003
 3,053705e+000; 1,293239e+003
 3,055025e+000; 1,288249e+003
 3,056285e+000; 1,282787e+003
 3,057545e+000; 1,276776e+003
 3,058925e+000; 1,270215e+003
 3,060305e+000; 1,263078e+003
 3,061625e+000; 1,255409e+003
 3,063005e+000; 1,247294e+003
 3,064325e+000; 1,238796e+003
 3,065645e+000; 1,230037e+003
 3,067085e+000; 1,220029e+003
 3,068285e+000; 1,212229e+003
 3,069605e+000; 1,203382e+003
 3,072305e+000; 1,186203e+003
 3,073685e+000; 1,178010e+003
 3,075005e+000; 1,170176e+003
 3,076325e+000; 1,162760e+003
 3,077645e+000; 1,155867e+003
 3,079025e+000; 1,149480e+003
 3,080345e+000; 1,143565e+003
 3,081725e+000; 1,138120e+003
 3,083045e+000; 1,133104e+003
 3,084305e+000; 1,128436e+003
 3,085625e+000; 1,124100e+003
 3,086945e+000; 1,120086e+003
 3,088265e+000; 1,116352e+003
 3,089705e+000; 1,112853e+003
 3,091025e+000; 1,109599e+003
 3,092285e+000; 1,106537e+003
 3,093785e+000; 1,103352e+003
 3,094985e+000; 1,100961e+003
 3,097565e+000; 1,096032e+003
 3,098945e+000; 1,093755e+003
 3,100265e+000; 1,091582e+003
 3,101645e+000; 1,089532e+003
 3,102965e+000; 1,087578e+003
 3,104285e+000; 1,085710e+003
 3,105605e+000; 1,083957e+003
 3,106985e+000; 1,082264e+003
 3,108365e+000; 1,080659e+003
 3,109745e+000; 1,079088e+003
 3,111005e+000; 1,077596e+003
 3,112265e+000; 1,076165e+003
 3,113705e+000; 1,074796e+003
 3,114965e+000; 1,073487e+003
 3,116285e+000; 1,072257e+003
 3,117605e+000; 1,071035e+003
 3,119165e+000; 1,069735e+003
 3,120305e+000; 1,068767e+003
 3,121625e+000; 1,067702e+003
 3,124325e+000; 1,065669e+003
 3,125645e+000; 1,064701e+003
 3,126965e+000; 1,063794e+003
 3,128345e+000; 1,062904e+003
 3,129665e+000; 1,062057e+003
 3,131045e+000; 1,061211e+003
 3,132305e+000; 1,060391e+003
 3,133565e+000; 1,059606e+003
 3,135005e+000; 1,058820e+003
 3,136265e+000; 1,058070e+003
 3,137645e+000; 1,057346e+003
 3,139025e+000; 1,056630e+003
 3,140345e+000; 1,055906e+003
 3,141605e+000; 1,055226e+003
 3,142925e+000; 1,054563e+003
 3,144245e+000; 1,053935e+003
 3,145565e+000; 1,053298e+003
 3,147125e+000; 1,052635e+003
 3,148265e+000; 1,052155e+003
 3,151025e+000; 1,051029e+003
 3,152285e+000; 1,050514e+003
 3,153605e+000; 1,049965e+003
 3,154985e+000; 1,049450e+003
 3,156305e+000; 1,048953e+003
 3,157625e+000; 1,048438e+003
 3,158945e+000; 1,047958e+003
 3,160325e+000; 1,047469e+003
 3,161645e+000; 1,046990e+003
 3,162965e+000; 1,046501e+003
 3,164345e+000; 1,046056e+003
 3,165665e+000; 1,045576e+003
 3,167045e+000; 1,045131e+003
 3,168305e+000; 1,044677e+003
 3,169625e+000; 1,044250e+003
 3,170945e+000; 1,043796e+003
 3,172265e+000; 1,043377e+003
 3,173765e+000; 1,042898e+003
 3,174905e+000; 1,042531e+003
 3,177605e+000; 1,041720e+003
 3,178925e+000; 1,041310e+003
 3,180245e+000; 1,040908e+003
 3,181625e+000; 1,040507e+003
 3,182945e+000; 1,040114e+003
 3,184265e+000; 1,039722e+003
 3,185645e+000; 1,039347e+003
 3,186965e+000; 1,038980e+003
 3,188345e+000; 1,038640e+003
 3,189665e+000; 1,038273e+003
 3,190985e+000; 1,037898e+003
 3,192305e+000; 1,037541e+003
 3,193625e+000; 1,037174e+003
 3,194945e+000; 1,036816e+003
 3,196265e+000; 1,036459e+003
 3,197645e+000; 1,036136e+003
 3,198905e+000; 1,035813e+003
 3,200465e+000; 1,035473e+003
 3,201605e+000; 1,035185e+003
 3,204365e+000; 1,034626e+003
 3,205685e+000; 1,034330e+003
 3,206945e+000; 1,034033e+003
 3,208265e+000; 1,033754e+003
 3,209585e+000; 1,033457e+003
 3,210965e+000; 1,033213e+003
 3,212285e+000; 1,032934e+003
 3,213665e+000; 1,032698e+003
 3,214925e+000; 1,032437e+003
 3,216245e+000; 1,032183e+003
 3,217565e+000; 1,031913e+003
 3,218945e+000; 1,031677e+003
 3,220265e+000; 1,031398e+003
 3,221585e+000; 1,031163e+003
 3,222965e+000; 1,030918e+003
 3,224345e+000; 1,030674e+003
 3,225665e+000; 1,030430e+003
 3,226985e+000; 1,030212e+003
 3,228305e+000; 1,029976e+003
 3,229625e+000; 1,029732e+003
 3,232265e+000; 1,029339e+003
 3,233585e+000; 1,029139e+003
 3,234905e+000; 1,028955e+003
 3,236225e+000; 1,028798e+003
 3,237605e+000; 1,028615e+003
 3,238925e+000; 1,028449e+003
 3,240365e+000; 1,028310e+003
 3,241625e+000; 1,028135e+003
 3,243005e+000; 1,027978e+003
 3,244325e+000; 1,027795e+003
 3,245585e+000; 1,027638e+003
 3,246965e+000; 1,027463e+003
 3,248285e+000; 1,027315e+003
 3,249605e+000; 1,027132e+003
 3,250985e+000; 1,027010e+003
 3,252305e+000; 1,026835e+003
 3,253565e+000; 1,026687e+003
 3,254945e+000; 1,026539e+003
 3,256265e+000; 1,026425e+003
 3,257585e+000; 1,026277e+003
 3,260285e+000; 1,026024e+003
 3,261605e+000; 1,025919e+003
 3,262925e+000; 1,025806e+003
 3,264305e+000; 1,025692e+003
 3,265625e+000; 1,025579e+003
 3,266945e+000; 1,025483e+003
 3,268265e+000; 1,025352e+003
 3,269585e+000; 1,025247e+003
 3,270965e+000; 1,025143e+003
 3,272225e+000; 1,025020e+003
 3,273605e+000; 1,024933e+003
 3,274985e+000; 1,024846e+003
 3,276305e+000; 1,024741e+003
 3,277625e+000; 1,024628e+003
 3,279005e+000; 1,024541e+003
 3,280325e+000; 1,024445e+003
 3,281645e+000; 1,024331e+003
 3,283145e+000; 1,024218e+003
 3,284285e+000; 1,024148e+003
 3,286985e+000; 1,024000e+003
 3,288245e+000; 1,023939e+003
 3,289625e+000; 1,023878e+003
 3,290945e+000; 1,023816e+003
 3,292265e+000; 1,023747e+003
 3,293525e+000; 1,023686e+003
 3,294905e+000; 1,023616e+003
 3,296285e+000; 1,023590e+003
 3,297605e+000; 1,023537e+003
 3,298925e+000; 1,023502e+003
 3,300305e+000; 1,023459e+003
 3,301685e+000; 1,023424e+003
 3,302945e+000; 1,023371e+003
 3,304265e+000; 1,023310e+003
 3,305645e+000; 1,023249e+003
 3,306965e+000; 1,023188e+003
 3,308285e+000; 1,023118e+003
 3,309545e+000; 1,023049e+003
 3,310925e+000; 1,022988e+003
 3,312305e+000; 1,022935e+003
 3,313625e+000; 1,022892e+003
 3,316325e+000; 1,022822e+003
 3,317645e+000; 1,022796e+003
 3,318905e+000; 1,022743e+003
 3,320225e+000; 1,022708e+003
 3,321545e+000; 1,022682e+003
 3,322925e+000; 1,022665e+003
 3,324305e+000; 1,022630e+003
 3,325625e+000; 1,022639e+003
 3,326885e+000; 1,022621e+003
 3,328265e+000; 1,022586e+003
 3,329645e+000; 1,022551e+003
 3,330905e+000; 1,022551e+003
 3,332285e+000; 1,022516e+003
 3,333605e+000; 1,022482e+003
 3,334985e+000; 1,022473e+003
 3,336305e+000; 1,022455e+003
 3,337865e+000; 1,022429e+003
 3,339005e+000; 1,022386e+003
 3,341585e+000; 1,022316e+003
 3,342905e+000; 1,022307e+003
 3,344225e+000; 1,022298e+003
 3,345605e+000; 1,022298e+003
 3,346865e+000; 1,022316e+003
 3,348305e+000; 1,022333e+003
 3,349625e+000; 1,022316e+003
 3,351005e+000; 1,022333e+003
 3,352265e+000; 1,022342e+003
 3,353645e+000; 1,022351e+003
 3,354965e+000; 1,022351e+003
 3,356345e+000; 1,022377e+003
 3,357605e+000; 1,022377e+003
 3,358865e+000; 1,022368e+003
 3,360305e+000; 1,022394e+003
 3,361625e+000; 1,022394e+003
 3,362945e+000; 1,022412e+003
 3,364265e+000; 1,022429e+003
 3,365765e+000; 1,022438e+003
 3,367025e+000; 1,022420e+003
 3,369605e+000; 1,022464e+003
 3,370985e+000; 1,022499e+003
 3,372305e+000; 1,022508e+003
 3,373685e+000; 1,022516e+003
 3,375005e+000; 1,022525e+003
 3,376265e+000; 1,022560e+003
 3,377585e+000; 1,022551e+003
 3,378965e+000; 1,022586e+003
 3,380345e+000; 1,022630e+003
 3,381605e+000; 1,022647e+003
 3,382925e+000; 1,022656e+003
 3,384305e+000; 1,022691e+003
 3,385565e+000; 1,022708e+003
 3,386945e+000; 1,022726e+003
 3,388265e+000; 1,022743e+003
 3,389645e+000; 1,022734e+003
 3,390965e+000; 1,022761e+003
 3,392285e+000; 1,022761e+003
 3,393845e+000; 1,022769e+003
 3,394985e+000; 1,022761e+003
 3,396305e+000; 1,022769e+003
 3,398945e+000; 1,022769e+003
 3,400265e+000; 1,022787e+003
 3,401585e+000; 1,022796e+003
 3,402965e+000; 1,022831e+003
 3,404165e+000; 1,022865e+003
 3,405485e+000; 1,022883e+003
 3,406925e+000; 1,022909e+003
 3,408305e+000; 1,022953e+003
 3,409625e+000; 1,022996e+003
 3,411005e+000; 1,023057e+003
 3,412385e+000; 1,023101e+003
 3,413645e+000; 1,023127e+003
 3,414965e+000; 1,023153e+003
 3,416285e+000; 1,023188e+003
 3,417665e+000; 1,023197e+003
 3,418985e+000; 1,023206e+003
 3,420365e+000; 1,023214e+003
 3,421625e+000; 1,023232e+003
 3,422945e+000; 1,023232e+003
 3,424265e+000; 1,023223e+003
 3,425645e+000; 1,023241e+003
 3,427145e+000; 1,023232e+003
 3,428285e+000; 1,023267e+003
 3,431045e+000; 1,023319e+003
 3,432305e+000; 1,023345e+003
 3,433565e+000; 1,023398e+003
 3,434945e+000; 1,023441e+003
 3,436265e+000; 1,023485e+003
 3,437645e+000; 1,023520e+003
 3,438965e+000; 1,023572e+003
 3,440345e+000; 1,023590e+003
 3,441605e+000; 1,023607e+003
 3,442865e+000; 1,023624e+003
 3,444245e+000; 1,023668e+003
 3,445625e+000; 1,023668e+003
 3,447005e+000; 1,023729e+003
 3,448325e+000; 1,023764e+003
 3,449705e+000; 1,023781e+003
 3,451025e+000; 1,023808e+003
 3,452345e+000; 1,023843e+003
 3,453605e+000; 1,023834e+003
 3,454985e+000; 1,023851e+003
 3,456305e+000; 1,023869e+003
 3,457805e+000; 1,023886e+003
 3,458945e+000; 1,023904e+003
 3,461585e+000; 1,023973e+003
 3,462905e+000; 1,024026e+003
 3,464285e+000; 1,024096e+003
 3,465605e+000; 1,024130e+003
 3,467045e+000; 1,024200e+003
 3,468365e+000; 1,024226e+003
 3,469625e+000; 1,024244e+003
 3,470945e+000; 1,024261e+003
 3,472265e+000; 1,024279e+003
 3,473585e+000; 1,024314e+003
 3,475025e+000; 1,024331e+003
 3,476345e+000; 1,024366e+003
 3,477605e+000; 1,024375e+003
 3,478925e+000; 1,024401e+003
 3,480305e+000; 1,024384e+003
 3,481685e+000; 1,024418e+003
 3,483125e+000; 1,024453e+003
 3,484265e+000; 1,024479e+003
 3,485645e+000; 1,024523e+003
 3,487025e+000; 1,024575e+003
 3,489665e+000; 1,024654e+003
 3,490985e+000; 1,024645e+003
 3,492245e+000; 1,024689e+003
 3,493565e+000; 1,024698e+003
 3,494945e+000; 1,024750e+003
 3,496265e+000; 1,024759e+003
 3,497525e+000; 1,024828e+003
 3,498905e+000; 1,024863e+003
 3,500285e+000; 1,024907e+003
 3,501605e+000; 1,024933e+003
 3,502985e+000; 1,025003e+003
 3,504365e+000; 1,025029e+003
 3,505745e+000; 1,025029e+003
 3,507005e+000; 1,025055e+003
 3,508265e+000; 1,025082e+003
 3,509585e+000; 1,025082e+003
 3,510965e+000; 1,025108e+003
 3,512465e+000; 1,025134e+003
 3,513605e+000; 1,025169e+003
 3,514925e+000; 1,025195e+003
 3,517565e+000; 1,025247e+003
 3,518945e+000; 1,025308e+003
 3,520265e+000; 1,025352e+003
 3,521645e+000; 1,025396e+003
 3,523025e+000; 1,025439e+003
 3,524345e+000; 1,025492e+003
 3,525665e+000; 1,025509e+003
 3,526925e+000; 1,025544e+003
 3,528305e+000; 1,025553e+003
 3,529625e+000; 1,025588e+003
 3,530945e+000; 1,025588e+003
 3,532265e+000; 1,025605e+003
 3,533645e+000; 1,025605e+003
 3,534905e+000; 1,025631e+003
 3,536225e+000; 1,025622e+003
 3,537605e+000; 1,025657e+003
 3,538925e+000; 1,025683e+003
 3,540545e+000; 1,025718e+003
 3,541625e+000; 1,025718e+003
 3,544265e+000; 1,025753e+003
 3,545585e+000; 1,025753e+003
 3,546965e+000; 1,025780e+003
 3,548225e+000; 1,025806e+003
 3,549605e+000; 1,025832e+003
 3,550985e+000; 1,025841e+003
 3,552245e+000; 1,025875e+003
 3,553565e+000; 1,025875e+003
 3,554885e+000; 1,025893e+003
 3,556265e+000; 1,025928e+003
 3,557645e+000; 1,025980e+003
 3,559025e+000; 1,025989e+003
 3,560345e+000; 1,026032e+003
 3,561665e+000; 1,026059e+003
 3,562985e+000; 1,026067e+003
 3,564365e+000; 1,026059e+003
 3,565685e+000; 1,026076e+003
 3,567005e+000; 1,026067e+003
 3,568265e+000; 1,026076e+003
 3,569645e+000; 1,026076e+003
 3,571085e+000; 1,026102e+003
 3,572405e+000; 1,026111e+003
 3,573605e+000; 1,026146e+003
 3,574925e+000; 1,026181e+003
 3,576245e+000; 1,026207e+003
 3,579005e+000; 1,026277e+003
 3,580325e+000; 1,026268e+003
 3,581585e+000; 1,026268e+003
 3,582905e+000; 1,026294e+003
 3,584225e+000; 1,026320e+003
 3,585605e+000; 1,026329e+003
 3,586925e+000; 1,026373e+003
 3,588305e+000; 1,026408e+003
 3,589685e+000; 1,026434e+003
 3,591005e+000; 1,026434e+003
 3,592265e+000; 1,026434e+003
 3,593585e+000; 1,026451e+003
 3,594905e+000; 1,026460e+003
 3,596285e+000; 1,026460e+003
 3,597665e+000; 1,026504e+003
 3,598985e+000; 1,026539e+003
 3,600305e+000; 1,026565e+003
 3,601625e+000; 1,026600e+003
 3,602885e+000; 1,026626e+003
 3,604205e+000; 1,026669e+003
 3,605585e+000; 1,026704e+003
 3,607085e+000; 1,026748e+003
 3,608285e+000; 1,026800e+003
 3,610925e+000; 1,026888e+003
 3,612245e+000; 1,026940e+003
 3,613625e+000; 1,027001e+003
 3,615005e+000; 1,027018e+003
 3,616325e+000; 1,027062e+003
 3,617705e+000; 1,027079e+003
 3,618965e+000; 1,027106e+003
 3,620285e+000; 1,027114e+003
 3,621665e+000; 1,027141e+003
 3,622925e+000; 1,027149e+003
 3,624365e+000; 1,027184e+003
 3,625625e+000; 1,027193e+003
 3,627005e+000; 1,027184e+003
 3,628265e+000; 1,027210e+003
 3,629525e+000; 1,027237e+003
 3,630905e+000; 1,027228e+003
 3,632225e+000; 1,027263e+003
 3,633605e+000; 1,027324e+003
 3,634985e+000; 1,027341e+003
 3,636305e+000; 1,027367e+003
 3,637625e+000; 1,027428e+003
 3,638945e+000; 1,027437e+003
 3,640265e+000; 1,027437e+003
 3,641585e+000; 1,027463e+003
 3,642905e+000; 1,027481e+003
 3,644225e+000; 1,027490e+003
 3,646925e+000; 1,027542e+003
 3,648305e+000; 1,027524e+003
 3,649565e+000; 1,027524e+003
 3,651005e+000; 1,027542e+003
 3,652325e+000; 1,027542e+003
 3,653705e+000; 1,027551e+003
 3,655025e+000; 1,027568e+003
 3,656285e+000; 1,027586e+003
 3,657545e+000; 1,027594e+003
 3,658865e+000; 1,027620e+003
 3,660245e+000; 1,027629e+003
 3,661625e+000; 1,027673e+003
 3,662945e+000; 1,027690e+003
 3,664265e+000; 1,027699e+003
 3,665585e+000; 1,027716e+003
 3,666905e+000; 1,027743e+003
 3,668285e+000; 1,027751e+003
 3,669725e+000; 1,027760e+003
 3,670925e+000; 1,027769e+003
 3,672305e+000; 1,027795e+003
 3,675005e+000; 1,027795e+003
 3,676325e+000; 1,027804e+003
 3,677645e+000; 1,027821e+003
 3,678965e+000; 1,027795e+003
 3,680345e+000; 1,027804e+003
 3,681725e+000; 1,027795e+003
 3,682925e+000; 1,027795e+003
 3,684245e+000; 1,027795e+003
 3,685625e+000; 1,027804e+003
 3,686945e+000; 1,027812e+003
 3,688265e+000; 1,027847e+003
 3,689645e+000; 1,027865e+003
 3,690965e+000; 1,027891e+003
 3,692285e+000; 1,027935e+003
 3,693665e+000; 1,027943e+003
 3,694985e+000; 1,027961e+003
 3,696245e+000; 1,027987e+003
 3,697565e+000; 1,028013e+003
 3,698945e+000; 1,028004e+003
 3,700325e+000; 1,028048e+003
 3,701645e+000; 1,028039e+003
 3,702965e+000; 1,028057e+003
 3,704405e+000; 1,028048e+003
 3,705545e+000; 1,028065e+003
 3,708305e+000; 1,028048e+003
 3,709625e+000; 1,028039e+003
 3,711005e+000; 1,028057e+003
 3,712265e+000; 1,028039e+003
 3,713645e+000; 1,028039e+003
 3,714905e+000; 1,028074e+003
 3,716345e+000; 1,028100e+003
 3,717725e+000; 1,028109e+003
 3,718985e+000; 1,028126e+003
 3,721625e+000; 1,028170e+003
 3,722945e+000; 1,028188e+003
 3,724265e+000; 1,028231e+003
 3,725705e+000; 1,028257e+003
 3,726965e+000; 1,028275e+003
 3,728345e+000; 1,028310e+003
 3,729665e+000; 1,028336e+003
 3,730985e+000; 1,028318e+003
 3,732305e+000; 1,028336e+003
 3,733565e+000; 1,028353e+003
 3,734945e+000; 1,028353e+003
 3,736265e+000; 1,028327e+003
 3,737645e+000; 1,028345e+003
 3,738965e+000; 1,028345e+003
 3,740285e+000; 1,028345e+003
 3,741605e+000; 1,028327e+003
 3,742925e+000; 1,028345e+003
 3,744245e+000; 1,028353e+003
 3,745625e+000; 1,028371e+003
 3,746945e+000; 1,028380e+003
 3,748265e+000; 1,028414e+003
 3,749645e+000; 1,028423e+003
 3,752285e+000; 1,028467e+003
 3,753545e+000; 1,028493e+003
 3,754985e+000; 1,028502e+003
 3,756245e+000; 1,028510e+003
 3,757625e+000; 1,028528e+003
 3,758945e+000; 1,028536e+003
 3,760265e+000; 1,028571e+003
 3,761645e+000; 1,028563e+003
 3,762965e+000; 1,028589e+003
 3,764285e+000; 1,028563e+003
 3,765665e+000; 1,028589e+003
 3,766985e+000; 1,028571e+003
 3,768365e+000; 1,028580e+003
 3,769625e+000; 1,028571e+003
 3,770945e+000; 1,028571e+003
 3,772265e+000; 1,028563e+003
 3,773585e+000; 1,028589e+003
 3,774965e+000; 1,028589e+003
 3,776285e+000; 1,028624e+003
 3,777545e+000; 1,028667e+003
 3,779105e+000; 1,028711e+003
 3,780425e+000; 1,028737e+003
 3,781805e+000; 1,028763e+003
 3,782945e+000; 1,028790e+003
 3,784265e+000; 1,028807e+003
 3,786965e+000; 1,028842e+003
 3,788345e+000; 1,028842e+003
 3,789665e+000; 1,028842e+003
 3,790985e+000; 1,028842e+003
 3,792305e+000; 1,028824e+003
 3,793625e+000; 1,028816e+003
 3,795005e+000; 1,028790e+003
 3,796265e+000; 1,028781e+003
 3,797645e+000; 1,028772e+003
 3,798965e+000; 1,028798e+003
 3,800285e+000; 1,028807e+003
 3,801605e+000; 1,028859e+003
 3,802925e+000; 1,028894e+003
 3,804365e+000; 1,028938e+003
 3,805685e+000; 1,028955e+003
 3,807005e+000; 1,028964e+003
 3,808265e+000; 1,028955e+003
 3,809645e+000; 1,028955e+003
 3,811085e+000; 1,028955e+003
 3,812405e+000; 1,028990e+003
 3,813545e+000; 1,028999e+003
 3,814925e+000; 1,029025e+003
 3,816245e+000; 1,029051e+003
 3,818945e+000; 1,029034e+003
 3,820325e+000; 1,029060e+003
 3,821645e+000; 1,029060e+003
 3,822965e+000; 1,029051e+003
 3,824345e+000; 1,029069e+003
 3,825665e+000; 1,029086e+003
 3,826985e+000; 1,029069e+003
 3,828305e+000; 1,029069e+003
 3,829625e+000; 1,029095e+003
 3,830945e+000; 1,029104e+003
 3,832265e+000; 1,029121e+003
 3,833645e+000; 1,029156e+003
 3,834965e+000; 1,029182e+003
 3,836225e+000; 1,029208e+003
 3,837545e+000; 1,029234e+003
 3,838925e+000; 1,029269e+003
 3,840305e+000; 1,029296e+003
 3,841685e+000; 1,029330e+003
 3,842945e+000; 1,029348e+003
 3,844265e+000; 1,029365e+003
 3,845645e+000; 1,029365e+003
 3,847145e+000; 1,029383e+003
 3,848285e+000; 1,029383e+003
 3,850985e+000; 1,029365e+003
 3,852245e+000; 1,029357e+003
 3,853625e+000; 1,029348e+003
 3,854945e+000; 1,029357e+003
 3,856205e+000; 1,029374e+003
 3,857645e+000; 1,029392e+003
 3,858965e+000; 1,029418e+003
 3,860345e+000; 1,029444e+003
 3,861605e+000; 1,029444e+003
 3,862985e+000; 1,029435e+003
 3,864365e+000; 1,029444e+003
 3,865625e+000; 1,029444e+003
 3,866945e+000; 1,029444e+003
 3,868265e+000; 1,029444e+003
 3,869645e+000; 1,029479e+003
 3,870965e+000; 1,029479e+003
 3,872285e+000; 1,029488e+003
 3,873605e+000; 1,029479e+003
 3,874925e+000; 1,029470e+003
 3,876305e+000; 1,029444e+003
 3,877625e+000; 1,029444e+003
 3,879005e+000; 1,029427e+003
 3,880325e+000; 1,029400e+003
 3,881825e+000; 1,029409e+003
 3,882905e+000; 1,029383e+003
 3,884285e+000; 1,029374e+003
 3,886985e+000; 1,029365e+003
 3,888245e+000; 1,029339e+003
 3,889625e+000; 1,029348e+003
 3,890945e+000; 1,029339e+003
 3,892205e+000; 1,029348e+003
 3,893525e+000; 1,029374e+003
 3,894905e+000; 1,029365e+003
 3,896285e+000; 1,029383e+003
 3,897605e+000; 1,029392e+003
 3,898985e+000; 1,029392e+003
 3,900305e+000; 1,029374e+003
 3,901625e+000; 1,029383e+003
 3,902945e+000; 1,029348e+003
 3,904265e+000; 1,029313e+003
 3,905585e+000; 1,029287e+003
 3,906965e+000; 1,029243e+003
 3,908225e+000; 1,029200e+003
 3,909605e+000; 1,029182e+003
 3,910925e+000; 1,029165e+003
 3,912305e+000; 1,029130e+003
 3,913625e+000; 1,029121e+003
 3,914945e+000; 1,029130e+003
 3,916265e+000; 1,029112e+003
 3,917645e+000; 1,029104e+003
 3,918905e+000; 1,029095e+003
 3,920285e+000; 1,029078e+003
 3,921545e+000; 1,029051e+003
 3,922925e+000; 1,029043e+003
 3,924425e+000; 1,029051e+003
 3,925565e+000; 1,029043e+003
 3,926945e+000; 1,029025e+003
 3,929585e+000; 1,029008e+003
 3,930905e+000; 1,028990e+003
 3,932285e+000; 1,028964e+003
 3,933665e+000; 1,028947e+003
 3,934925e+000; 1,028912e+003
 3,936365e+000; 1,028877e+003
 3,937625e+000; 1,028833e+003
 3,938945e+000; 1,028807e+003
 3,940265e+000; 1,028772e+003
 3,941645e+000; 1,028737e+003
 3,942905e+000; 1,028711e+003
 3,944285e+000; 1,028702e+003
 3,945605e+000; 1,028659e+003
 3,946925e+000; 1,028659e+003
 3,948245e+000; 1,028641e+003
 3,949565e+000; 1,028667e+003
 3,950945e+000; 1,028659e+003
 3,952325e+000; 1,028641e+003
 3,953645e+000; 1,028615e+003
 3,955145e+000; 1,028580e+003
 3,956285e+000; 1,028536e+003
 3,957545e+000; 1,028493e+003
 3,960245e+000; 1,028432e+003
 3,961625e+000; 1,028388e+003
 3,962945e+000; 1,028353e+003
 3,964265e+000; 1,028292e+003
 3,965585e+000; 1,028231e+003
 3,966905e+000; 1,028179e+003
 3,968285e+000; 1,028126e+003
 3,969605e+000; 1,028100e+003
 3,970925e+000; 1,028074e+003
 3,972365e+000; 1,028048e+003
 3,973625e+000; 1,028039e+003
 3,975005e+000; 1,028013e+003
 3,976325e+000; 1,027978e+003
 3,977645e+000; 1,027952e+003
 3,978965e+000; 1,027935e+003
 3,980285e+000; 1,027882e+003
 3,981605e+000; 1,027839e+003
 3,982925e+000; 1,027786e+003
 3,984245e+000; 1,027734e+003
 3,985505e+000; 1,027673e+003
 3,988265e+000; 1,027612e+003
 3,989645e+000; 1,027577e+003
 3,991025e+000; 1,027533e+003
 3,992345e+000; 1,027498e+003
 3,993665e+000; 1,027420e+003
 3,994925e+000; 1,027333e+003
 3,996245e+000; 1,027263e+003
 3,997565e+000; 1,027202e+003
 3,998945e+000; 1,027132e+003
 4,000265e+000; 1,027088e+003
 4,001585e+000; 1,027045e+003
 4,002845e+000; 1,026992e+003
 4,004285e+000; 1,026940e+003
 4,005545e+000; 1,026896e+003
 4,006865e+000; 1,026879e+003
 4,008245e+000; 1,026853e+003
 4,009685e+000; 1,026835e+003
 4,010945e+000; 1,026818e+003
 4,012505e+000; 1,026765e+003
 4,013765e+000; 1,026704e+003
 4,015025e+000; 1,026643e+003
 4,017605e+000; 1,026486e+003
 4,019044e+000; 1,026434e+003
 4,020305e+000; 1,026355e+003
 4,021625e+000; 1,026268e+003
 4,023005e+000; 1,026216e+003
 4,024265e+000; 1,026129e+003
 4,025585e+000; 1,026059e+003
 4,026965e+000; 1,025989e+003
 4,028285e+000; 1,025963e+003
 4,029665e+000; 1,025875e+003
 4,030984e+000; 1,025832e+003
 4,032305e+000; 1,025762e+003
 4,033565e+000; 1,025718e+003
 4,034945e+000; 1,025657e+003
 4,036264e+000; 1,025631e+003
 4,037645e+000; 1,025579e+003
 4,039025e+000; 1,025544e+003
 4,040345e+000; 1,025465e+003
 4,041544e+000; 1,025396e+003
 4,042865e+000; 1,025361e+003
 4,044245e+000; 1,025291e+003
 4,047005e+000; 1,025212e+003
 4,048325e+000; 1,025160e+003
 4,049705e+000; 1,025064e+003
 4,051024e+000; 1,025012e+003
 4,052285e+000; 1,024942e+003
 4,053665e+000; 1,024855e+003
 4,054924e+000; 1,024767e+003
 4,056304e+000; 1,024706e+003
 4,057625e+000; 1,024610e+003
 4,058885e+000; 1,024532e+003
 4,060205e+000; 1,024436e+003
 4,061524e+000; 1,024392e+003
 4,062905e+000; 1,024314e+003
 4,064225e+000; 1,024270e+003
 4,065605e+000; 1,024235e+003
 4,066985e+000; 1,024192e+003
 4,068425e+000; 1,024113e+003
 4,069745e+000; 1,024043e+003
 4,070945e+000; 1,024000e+003
 4,072265e+000; 1,023904e+003
 4,074965e+000; 1,023799e+003
 4,076284e+000; 1,023729e+003
 4,077605e+000; 1,023659e+003
 4,078925e+000; 1,023598e+003
 4,080245e+000; 1,023529e+003
 4,081625e+000; 1,023459e+003
 4,083004e+000; 1,023398e+003
 4,084325e+000; 1,023345e+003
 4,085705e+000; 1,023302e+003
 4,087085e+000; 1,023241e+003
 4,088284e+000; 1,023197e+003
 4,089605e+000; 1,023145e+003
 4,090925e+000; 1,023066e+003
 4,092305e+000; 1,023005e+003
 4,093565e+000; 1,022926e+003
 4,094944e+000; 1,022848e+003
 4,096265e+000; 1,022787e+003
 4,097525e+000; 1,022726e+003
 4,098905e+000; 1,022639e+003
 4,100285e+000; 1,022577e+003
 4,102984e+000; 1,022447e+003
 4,104424e+000; 1,022359e+003
 4,105685e+000; 1,022263e+003
 4,106945e+000; 1,022159e+003
 4,108205e+000; 1,022045e+003
 4,109585e+000; 1,021949e+003
 4,110905e+000; 1,021853e+003
 4,112285e+000; 1,021784e+003
 4,113605e+000; 1,021714e+003
 4,114924e+000; 1,021661e+003
 4,116304e+000; 1,021592e+003
 4,117565e+000; 1,021539e+003
 4,119005e+000; 1,021487e+003
 4,120265e+000; 1,021426e+003
 4,121705e+000; 1,021382e+003
 4,122965e+000; 1,021312e+003
 4,124345e+000; 1,021251e+003
 4,125844e+000; 1,021173e+003
 4,126985e+000; 1,021112e+003
 4,128304e+000; 1,021024e+003
 4,130945e+000; 1,020867e+003
 4,132265e+000; 1,020771e+003
 4,133584e+000; 1,020684e+003
 4,134905e+000; 1,020579e+003
 4,136225e+000; 1,020475e+003
 4,137545e+000; 1,020396e+003
 4,138985e+000; 1,020309e+003
 4,140305e+000; 1,020204e+003
 4,141624e+000; 1,020100e+003
 4,143004e+000; 1,020004e+003
 4,144205e+000; 1,019908e+003
 4,145585e+000; 1,019812e+003
 4,146904e+000; 1,019733e+003
 4,148284e+000; 1,019672e+003
 4,149605e+000; 1,019594e+003
 4,150925e+000; 1,019506e+003
 4,152245e+000; 1,019419e+003
 4,153685e+000; 1,019332e+003
 4,154885e+000; 1,019262e+003
 4,157645e+000; 1,019131e+003
 4,159025e+000; 1,019053e+003
 4,160345e+000; 1,018948e+003
 4,161664e+000; 1,018869e+003
 4,162985e+000; 1,018756e+003
 4,164365e+000; 1,018643e+003
 4,165625e+000; 1,018529e+003
 4,166945e+000; 1,018424e+003
 4,168265e+000; 1,018294e+003
 4,169585e+000; 1,018189e+003
 4,170905e+000; 1,018102e+003
 4,172225e+000; 1,017997e+003
 4,173604e+000; 1,017910e+003
 4,174865e+000; 1,017796e+003
 4,176305e+000; 1,017692e+003
 4,177565e+000; 1,017561e+003
 4,179005e+000; 1,017447e+003
 4,180325e+000; 1,017308e+003
 4,181585e+000; 1,017186e+003
 4,182965e+000; 1,017029e+003
 4,184285e+000; 1,016889e+003
 4,186924e+000; 1,016557e+003
 4,188365e+000; 1,016409e+003
 4,189625e+000; 1,016252e+003
 4,190945e+000; 1,016069e+003
 4,192325e+000; 1,015885e+003
 4,193584e+000; 1,015720e+003
 4,194905e+000; 1,015519e+003
 4,196285e+000; 1,015327e+003
 4,197605e+000; 1,015144e+003
 4,198985e+000; 1,014952e+003
 4,200305e+000; 1,014751e+003
 4,201624e+000; 1,014568e+003
 4,202945e+000; 1,014376e+003
 4,204144e+000; 1,014167e+003
 4,205585e+000; 1,013975e+003
 4,206904e+000; 1,013792e+003
 4,208225e+000; 1,013556e+003
 4,209665e+000; 1,013347e+003
 4,210925e+000; 1,013163e+003
 4,212305e+000; 1,012945e+003
 4,214945e+000; 1,012535e+003
 4,216325e+000; 1,012282e+003
 4,217705e+000; 1,012038e+003
 4,218904e+000; 1,011802e+003
 4,220284e+000; 1,011532e+003
 4,221664e+000; 1,011288e+003
 4,222925e+000; 1,011017e+003
 4,224305e+000; 1,010747e+003
 4,225625e+000; 1,010467e+003
 4,226944e+000; 1,010180e+003
 4,228205e+000; 1,009874e+003
 4,229585e+000; 1,009612e+003
 4,230965e+000; 1,009333e+003
 4,232285e+000; 1,009036e+003
 4,233604e+000; 1,008757e+003
 4,234984e+000; 1,008469e+003
 4,236305e+000; 1,008147e+003
 4,237625e+000; 1,007833e+003
 4,238945e+000; 1,007518e+003
 4,240264e+000; 1,007187e+003
 4,241645e+000; 1,006847e+003
 4,244285e+000; 1,006166e+003
 4,245605e+000; 1,005782e+003
 4,246924e+000; 1,005442e+003
 4,248245e+000; 1,005075e+003
 4,249625e+000; 1,004692e+003
 4,250945e+000; 1,004316e+003
 4,252264e+000; 1,003959e+003
 4,253644e+000; 1,003557e+003
 4,254965e+000; 1,003147e+003
 4,256285e+000; 1,002772e+003
 4,257545e+000; 1,002353e+003
 4,258924e+000; 1,001952e+003
 4,260245e+000; 1,001533e+003
 4,261565e+000; 1,001141e+003
 4,262945e+000; 1,000713e+003
 4,264265e+000; 1,000294e+003
 4,265584e+000; 9,998492e+002
 4,266845e+000; 9,994043e+002
 4,268404e+000; 9,989157e+002
 4,269605e+000; 9,985231e+002
 4,270925e+000; 9,980694e+002
 4,273624e+000; 9,971446e+002
 4,275005e+000; 9,966735e+002
 4,276325e+000; 9,961674e+002
 4,277645e+000; 9,956701e+002
 4,278965e+000; 9,951641e+002
 4,280284e+000; 9,946231e+002
 4,281724e+000; 9,940822e+002
 4,282925e+000; 9,935237e+002
 4,284305e+000; 9,929654e+002
 4,285625e+000; 9,924070e+002
 4,287004e+000; 9,918660e+002
 4,288265e+000; 9,912902e+002
 4,289645e+000; 9,907580e+002
 4,290965e+000; 9,901821e+002
 4,292284e+000; 9,895714e+002
 4,293605e+000; 9,889781e+002
 4,294985e+000; 9,883674e+002
 4,296305e+000; 9,877217e+002
 4,297745e+000; 9,870063e+002
 4,298884e+000; 9,864218e+002
 4,300265e+000; 9,857325e+002
 4,302905e+000; 9,843190e+002
 4,304285e+000; 9,836124e+002
 4,305604e+000; 9,828533e+002
 4,306984e+000; 9,820942e+002
 4,308305e+000; 9,812916e+002
 4,309685e+000; 9,804888e+002
 4,310945e+000; 9,796425e+002
 4,312264e+000; 9,787875e+002
 4,313704e+000; 9,779063e+002
 4,314965e+000; 9,770164e+002
 4,316285e+000; 9,760916e+002
 4,317544e+000; 9,751580e+002
 4,318924e+000; 9,741982e+002
 4,320364e+000; 9,732123e+002
 4,321625e+000; 9,722003e+002
 4,323005e+000; 9,711533e+002
 4,324325e+000; 9,700540e+002
 4,325825e+000; 9,687888e+002
 4,327024e+000; 9,677768e+002
 4,328285e+000; 9,665989e+002
 4,331105e+000; 9,640513e+002
 4,332304e+000; 9,627076e+002
 4,333625e+000; 9,613204e+002
 4,335005e+000; 9,598633e+002
 4,336265e+000; 9,583889e+002
 4,337705e+000; 9,568358e+002
 4,339025e+000; 9,552305e+002
 4,340344e+000; 9,535640e+002
 4,341665e+000; 9,518016e+002
 4,342985e+000; 9,499781e+002
 4,344305e+000; 9,481022e+002
 4,345624e+000; 9,461217e+002
 4,346945e+000; 9,440190e+002
 4,348265e+000; 9,418640e+002
 4,349645e+000; 9,395432e+002
 4,351025e+000; 9,370566e+002
 4,352345e+000; 9,344130e+002
 4,353845e+000; 9,312109e+002
 4,354985e+000; 9,285586e+002
 4,357625e+000; 9,216835e+002
 4,358944e+000; 9,177311e+002
 4,360265e+000; 9,133512e+002
 4,361705e+000; 9,083868e+002
 4,363025e+000; 9,026459e+002
 4,364345e+000; 8,958143e+002
 4,365664e+000; 8,868626e+002
           0,0; 8,216793e+002
           0,0; 6,748316e+002
           0,0; 5,296939e+002
           0,0; 3,863710e+002
           0,0; 2,460319e+002
           0,0; 1,629627e+002
           0,0; 1,628406e+002
           0,0; 1,625178e+002
           0,0; 1,623345e+002
           0,0; 1,622298e+002
           0,0; 1,621339e+002
           0,0; 1,620204e+002
           0,0; 1,619855e+002
           0,0; 1,619245e+002
           0,0; 1,618372e+002
           0,0; 1,618111e+002
           0,0; 1,617587e+002
           0,0; 1,617325e+002
           0,0; 1,617064e+002
           0,0; 1,616540e+002
           0,0; 1,616278e+002
           0,0; 1,616104e+002
           0,0; 1,615668e+002
           0,0; 1,615231e+002
           0,0; 1,615406e+002
           0,0; 1,615057e+002
           0,0; 1,614708e+002
           0,0; 1,614795e+002
           0,0; 1,614795e+002
           0,0; 1,614446e+002
           0,0; 1,614359e+002
           0,0; 1,614621e+002
           0,0; 1,614446e+002
           0,0; 1,614446e+002
           0,0; 1,614446e+002
           0,0; 1,614272e+002
           0,0; 1,613574e+002
           0,0; 1,612527e+002
           0,0; 1,609822e+002
           0,0; 1,608164e+002
           0,0; 1,605896e+002
           0,0; 1,604936e+002
           0,0; 1,603715e+002
           0,0; 1,603191e+002
           0,0; 1,602668e+002
           0,0; 1,602842e+002
           0,0; 1,602580e+002
           0,0; 1,602668e+002
           0,0; 1,602755e+002
           0,0; 1,602842e+002
           0,0; 1,603104e+002
           0,0; 1,603191e+002
           0,0; 1,603191e+002
