        Strain;Standard force
           0,0; 7,879028e-002
           0,0; 6,134060e-002
           0,0; 7,879028e-002
           0,0; 8,751512e-002
           0,0; 5,586564e-001
           0,0; 5,848309e-001
           0,0; 5,848309e-001
           0,0; 5,935557e-001
           0,0; 6,022806e-001
 1,149658e-004; 6,197303e-001
 1,149658e-004; 6,197303e-001
 1,149658e-004; 6,284551e-001
 1,149658e-004; 6,459048e-001
 1,149658e-004; 6,371800e-001
 1,149658e-004; 6,284551e-001
 1,149658e-004; 6,459048e-001
 1,149658e-004; 6,371800e-001
 1,149658e-004; 6,371800e-001
 1,149658e-004; 6,546296e-001
 1,149658e-004; 6,633545e-001
 1,149658e-004; 6,459048e-001
 1,149658e-004; 6,459048e-001
 1,149658e-004; 6,633545e-001
 5,496582e-005; 6,546296e-001
 5,496582e-005; 6,371800e-001
 1,149658e-004; 6,720793e-001
 5,496582e-005; 6,720793e-001
 1,149658e-004; 6,633545e-001
 1,149658e-004; 6,808041e-001
 5,496582e-005; 6,982538e-001
 5,496582e-005; 6,982538e-001
-5,034180e-006; 6,982538e-001
 5,496582e-005; 6,982538e-001
 5,496582e-005; 6,895290e-001
 5,496582e-005; 6,808041e-001
 5,496582e-005; 6,982538e-001
 2,349658e-004; 7,157035e-001
 6,549658e-004; 7,418780e-001
 1,434966e-003; 7,680525e-001
 2,094966e-003; 7,855022e-001
 2,754966e-003; 8,204015e-001
 3,474966e-003; 8,465761e-001
 4,134966e-003; 8,553009e-001
 4,794966e-003; 8,727506e-001
 5,454966e-003; 8,902003e-001
 6,174966e-003; 8,989251e-001
 6,834966e-003; 9,163748e-001
 7,494966e-003; 9,338245e-001
 8,154966e-003; 9,599990e-001
 8,874966e-003; 9,861735e-001
 9,534966e-003; 1,012348e+000
 1,019497e-002; 1,029798e+000
 1,085497e-002; 1,038523e+000
 1,151497e-002; 1,055972e+000
 1,217497e-002; 1,099596e+000
 1,283497e-002; 1,204294e+000
 1,343497e-002; 1,422415e+000
 1,403497e-002; 1,736510e+000
 1,469497e-002; 2,155302e+000
 1,541497e-002; 2,670067e+000
 1,619497e-002; 3,280806e+000
 1,679497e-002; 3,743222e+000
 1,745497e-002; 4,301612e+000
 1,811497e-002; 4,842552e+000
 1,877497e-002; 5,383492e+000
 1,943497e-002; 5,941882e+000
 2,015497e-002; 6,508996e+000
 2,075497e-002; 7,032487e+000
 2,141497e-002; 7,599601e+000
 2,207497e-002; 8,149266e+000
 2,279497e-002; 8,716381e+000
 2,351497e-002; 9,248596e+000
 2,411497e-002; 9,815710e+000
 2,477496e-002; 1,038282e+001
 2,543497e-002; 1,095866e+001
 2,621497e-002; 1,150833e+001
 2,681497e-002; 1,206672e+001
 2,753497e-002; 1,266001e+001
 2,813497e-002; 1,322712e+001
 2,885497e-002; 1,379424e+001
 2,951497e-002; 1,437008e+001
 3,011497e-002; 1,496337e+001
 3,089496e-002; 1,558283e+001
 3,149497e-002; 1,609760e+001
 3,221497e-002; 1,666471e+001
 3,281496e-002; 1,724055e+001
 3,347497e-002; 1,779894e+001
 3,413497e-002; 1,836605e+001
 3,485497e-002; 1,891572e+001
 3,545497e-002; 1,946538e+001
 3,617496e-002; 2,003250e+001
 3,677497e-002; 2,060834e+001
 3,749496e-002; 2,117545e+001
 3,815497e-002; 2,174257e+001
 3,881497e-002; 2,233585e+001
 3,953497e-002; 2,291169e+001
 4,013497e-002; 2,348753e+001
 4,085496e-002; 2,405465e+001
 4,151497e-002; 2,462176e+001
 4,217497e-002; 2,518015e+001
 4,283497e-002; 2,572109e+001
 4,355497e-002; 2,626203e+001
 4,427497e-002; 2,689894e+001
 4,481497e-002; 2,737009e+001
 4,553496e-002; 2,792848e+001
 4,619497e-002; 2,848687e+001
 4,685497e-002; 2,904526e+001
 4,751497e-002; 2,957747e+001
 4,811497e-002; 3,011841e+001
 4,883496e-002; 3,066808e+001
 4,949497e-002; 3,120901e+001
 5,015497e-002; 3,173251e+001
 5,081497e-002; 3,230835e+001
 5,147497e-002; 3,285801e+001
 5,213496e-002; 3,339895e+001
 5,279497e-002; 3,396606e+001
 5,345497e-002; 3,451573e+001
 5,417497e-002; 3,507412e+001
 5,483497e-002; 3,564996e+001
 5,549496e-002; 3,618217e+001
 5,615497e-002; 3,674929e+001
 5,681496e-002; 3,731640e+001
 5,753497e-002; 3,786607e+001
 5,813497e-002; 3,839828e+001
 5,885497e-002; 3,903519e+001
 5,945497e-002; 3,951506e+001
 6,011496e-002; 4,011708e+001
 6,083497e-002; 4,065802e+001
 6,149497e-002; 4,124258e+001
 6,215497e-002; 4,179224e+001
 6,281497e-002; 4,235936e+001
 6,347497e-002; 4,289157e+001
 6,419496e-002; 4,345869e+001
 6,485496e-002; 4,400835e+001
 6,551497e-002; 4,458419e+001
 6,623497e-002; 4,512513e+001
 6,683496e-002; 4,569225e+001
 6,749497e-002; 4,621574e+001
 6,815497e-002; 4,676540e+001
 6,881496e-002; 4,729762e+001
 6,953496e-002; 4,783856e+001
 7,013497e-002; 4,836205e+001
 7,079496e-002; 4,892916e+001
 7,151496e-002; 4,945265e+001
 7,229497e-002; 5,005467e+001
 7,283497e-002; 5,054326e+001
 7,349496e-002; 5,106675e+001
 7,415497e-002; 5,161641e+001
 7,481497e-002; 5,216608e+001
 7,547496e-002; 5,273319e+001
 7,619496e-002; 5,325668e+001
 7,685497e-002; 5,381507e+001
 7,751497e-002; 5,436474e+001
 7,817496e-002; 5,489695e+001
 7,883497e-002; 5,542044e+001
 7,949497e-002; 5,597011e+001
 8,015496e-002; 5,652850e+001
 8,081497e-002; 5,705199e+001
 8,153497e-002; 5,762783e+001
 8,213497e-002; 5,819494e+001
 8,285496e-002; 5,872716e+001
 8,351497e-002; 5,926810e+001
 8,417497e-002; 5,985266e+001
 8,483496e-002; 6,039360e+001
 8,555496e-002; 6,095199e+001
 8,621497e-002; 6,151038e+001
 8,681496e-002; 6,203387e+001
 8,753496e-002; 6,256609e+001
 8,819497e-002; 6,310703e+001
 8,885497e-002; 6,363924e+001
 8,951496e-002; 6,418890e+001
 9,017497e-002; 6,474730e+001
 9,077497e-002; 6,527078e+001
 9,149496e-002; 6,581173e+001
 9,215496e-002; 6,634394e+001
 9,281497e-002; 6,691106e+001
 9,353497e-002; 6,746944e+001
 9,413496e-002; 6,801911e+001
 9,485497e-002; 6,857750e+001
 9,545497e-002; 6,911844e+001
 9,611496e-002; 6,964193e+001
 9,683497e-002; 7,015669e+001
 9,749497e-002; 7,070636e+001
 9,827497e-002; 7,129965e+001
 9,881496e-002; 7,177952e+001
 9,947497e-002; 7,230301e+001
 1,001350e-001; 7,284395e+001
 1,007950e-001; 7,338489e+001
 1,015150e-001; 7,389965e+001
 1,021750e-001; 7,444932e+001
 1,028350e-001; 7,499898e+001
 1,034950e-001; 7,555737e+001
 1,042150e-001; 7,607214e+001
 1,049350e-001; 7,663052e+001
 1,055350e-001; 7,713657e+001
 1,061950e-001; 7,765133e+001
 1,068550e-001; 7,816610e+001
 1,075150e-001; 7,868086e+001
 1,082350e-001; 7,916073e+001
 1,088350e-001; 7,969295e+001
 1,094950e-001; 8,019026e+001
 1,101550e-001; 8,070502e+001
 1,108150e-001; 8,122852e+001
 1,114750e-001; 8,176945e+001
 1,121350e-001; 8,226677e+001
 1,128550e-001; 8,278154e+001
 1,135150e-001; 8,328757e+001
 1,141150e-001; 8,378490e+001
 1,147750e-001; 8,428221e+001
 1,154950e-001; 8,477953e+001
 1,161550e-001; 8,531174e+001
 1,168150e-001; 8,580906e+001
 1,175350e-001; 8,630637e+001
 1,181950e-001; 8,682986e+001
 1,188550e-001; 8,733591e+001
 1,195750e-001; 8,781577e+001
 1,202350e-001; 8,832181e+001
 1,208950e-001; 8,881912e+001
 1,215550e-001; 8,929899e+001
 1,221550e-001; 8,978758e+001
 1,228750e-001; 9,027618e+001
 1,235350e-001; 9,075604e+001
 1,241950e-001; 9,123591e+001
 1,248550e-001; 9,170705e+001
 1,255150e-001; 9,219564e+001
 1,261750e-001; 9,267551e+001
 1,268350e-001; 9,315537e+001
 1,274950e-001; 9,366142e+001
 1,282150e-001; 9,415000e+001
 1,288150e-001; 9,464732e+001
 1,295350e-001; 9,515336e+001
 1,301950e-001; 9,565940e+001
 1,308550e-001; 9,613054e+001
 1,315150e-001; 9,662785e+001
 1,322350e-001; 9,713390e+001
 1,328350e-001; 9,763121e+001
 1,334950e-001; 9,810236e+001
 1,341550e-001; 9,862585e+001
 1,348150e-001; 9,914061e+001
 1,355350e-001; 9,962048e+001
 1,361350e-001; 1,001091e+002
 1,368550e-001; 1,006500e+002
 1,375150e-001; 1,011473e+002
 1,381750e-001; 1,016359e+002
 1,388350e-001; 1,021594e+002
 1,394950e-001; 1,026567e+002
 1,402750e-001; 1,032151e+002
 1,408150e-001; 1,036514e+002
 1,415350e-001; 1,041748e+002
 1,421350e-001; 1,046634e+002
 1,428550e-001; 1,051869e+002
 1,435150e-001; 1,057104e+002
 1,441750e-001; 1,062165e+002
 1,448350e-001; 1,067312e+002
 1,454950e-001; 1,072634e+002
 1,461550e-001; 1,077869e+002
 1,468150e-001; 1,083017e+002
 1,474750e-001; 1,088514e+002
 1,481350e-001; 1,093836e+002
 1,488550e-001; 1,099071e+002
 1,495150e-001; 1,104393e+002
 1,501750e-001; 1,109628e+002
 1,508350e-001; 1,114863e+002
 1,514950e-001; 1,119923e+002
 1,521550e-001; 1,125158e+002
 1,528150e-001; 1,130480e+002
 1,534750e-001; 1,135802e+002
 1,541350e-001; 1,141124e+002
 1,549150e-001; 1,147144e+002
 1,555150e-001; 1,152030e+002
 1,562350e-001; 1,157353e+002
 1,568950e-001; 1,162675e+002
 1,575550e-001; 1,167735e+002
 1,582150e-001; 1,172883e+002
 1,588150e-001; 1,178030e+002
 1,594750e-001; 1,183091e+002
 1,601950e-001; 1,188413e+002
 1,608550e-001; 1,193735e+002
 1,615750e-001; 1,198970e+002
 1,621750e-001; 1,204118e+002
 1,628350e-001; 1,209440e+002
 1,634950e-001; 1,214413e+002
 1,641550e-001; 1,219648e+002
 1,648150e-001; 1,224883e+002
 1,655350e-001; 1,230030e+002
 1,661950e-001; 1,235091e+002
 1,667950e-001; 1,240238e+002
 1,675150e-001; 1,245386e+002
 1,681150e-001; 1,250534e+002
 1,688950e-001; 1,256379e+002
 1,694350e-001; 1,260916e+002
 1,701550e-001; 1,266239e+002
 1,708150e-001; 1,271561e+002
 1,714750e-001; 1,276796e+002
 1,721950e-001; 1,282205e+002
 1,728550e-001; 1,287353e+002
 1,735150e-001; 1,292762e+002
 1,741750e-001; 1,297648e+002
 1,748350e-001; 1,302970e+002
 1,754950e-001; 1,308118e+002
 1,761550e-001; 1,313527e+002
 1,768150e-001; 1,318500e+002
 1,774750e-001; 1,323735e+002
 1,781350e-001; 1,329319e+002
 1,788550e-001; 1,334380e+002
 1,795150e-001; 1,339353e+002
 1,801750e-001; 1,344588e+002
 1,808350e-001; 1,349823e+002
 1,814950e-001; 1,354359e+002
 1,821550e-001; 1,359333e+002
 1,828150e-001; 1,364655e+002
 1,834750e-001; 1,369453e+002
 1,841350e-001; 1,374514e+002
 1,848550e-001; 1,379487e+002
 1,854550e-001; 1,384547e+002
 1,861750e-001; 1,389521e+002
 1,868350e-001; 1,394668e+002
 1,874950e-001; 1,399380e+002
 1,881550e-001; 1,404614e+002
 1,888150e-001; 1,409675e+002
 1,895350e-001; 1,414561e+002
 1,901950e-001; 1,419447e+002
 1,908550e-001; 1,424594e+002
 1,914550e-001; 1,429480e+002
 1,921750e-001; 1,434541e+002
 1,928350e-001; 1,439601e+002
 1,934950e-001; 1,444749e+002
 1,942150e-001; 1,449984e+002
 1,948750e-001; 1,455044e+002
 1,955350e-001; 1,460104e+002
 1,961950e-001; 1,465252e+002
 1,969750e-001; 1,471185e+002
 1,975150e-001; 1,475635e+002
 1,981750e-001; 1,480695e+002
 1,988350e-001; 1,485843e+002
 1,994950e-001; 1,490990e+002
 2,001550e-001; 1,495964e+002
 2,008150e-001; 1,500849e+002
 2,015350e-001; 1,506259e+002
 2,021950e-001; 1,511407e+002
 2,028550e-001; 1,516467e+002
 2,034550e-001; 1,521527e+002
 2,041750e-001; 1,526762e+002
 2,048350e-001; 1,531648e+002
 2,054950e-001; 1,536621e+002
 2,061550e-001; 1,541594e+002
 2,068150e-001; 1,546742e+002
 2,074750e-001; 1,551803e+002
 2,081350e-001; 1,556776e+002
 2,087350e-001; 1,561836e+002
 2,095150e-001; 1,566984e+002
 2,101750e-001; 1,572131e+002
 2,108350e-001; 1,577017e+002
 2,115550e-001; 1,582688e+002
 2,122150e-001; 1,587225e+002
 2,128150e-001; 1,592198e+002
 2,135350e-001; 1,597172e+002
 2,141350e-001; 1,602494e+002
 2,148550e-001; 1,607292e+002
 2,155150e-001; 1,612527e+002
 2,162350e-001; 1,617588e+002
 2,169550e-001; 1,622648e+002
 2,175550e-001; 1,627360e+002
 2,182150e-001; 1,632507e+002
 2,188150e-001; 1,637306e+002
 2,195350e-001; 1,642366e+002
 2,201950e-001; 1,647078e+002
 2,208550e-001; 1,652051e+002
 2,215150e-001; 1,657024e+002
 2,221750e-001; 1,661997e+002
 2,228950e-001; 1,666796e+002
 2,234950e-001; 1,672118e+002
 2,241550e-001; 1,676917e+002
 2,248150e-001; 1,681803e+002
 2,255350e-001; 1,687386e+002
 2,261350e-001; 1,691749e+002
 2,275150e-001; 1,701608e+002
 2,281150e-001; 1,706581e+002
 2,288350e-001; 1,711554e+002
 2,294950e-001; 1,716615e+002
 2,301550e-001; 1,721501e+002
 2,308750e-001; 1,726736e+002
 2,315350e-001; 1,731621e+002
 2,321950e-001; 1,736507e+002
 2,328550e-001; 1,741568e+002
 2,335150e-001; 1,746541e+002
 2,341750e-001; 1,751427e+002
 2,348950e-001; 1,756487e+002
 2,355550e-001; 1,761286e+002
 2,361550e-001; 1,766085e+002
 2,368750e-001; 1,770709e+002
 2,375350e-001; 1,775420e+002
 2,381350e-001; 1,780219e+002
 2,387950e-001; 1,784756e+002
 2,395750e-001; 1,790078e+002
 2,401150e-001; 1,794528e+002
 2,408350e-001; 1,799326e+002
 2,421550e-001; 1,808836e+002
 2,428150e-001; 1,813548e+002
 2,434750e-001; 1,818434e+002
 2,441350e-001; 1,823320e+002
 2,447950e-001; 1,827944e+002
 2,455150e-001; 1,833004e+002
 2,461150e-001; 1,837803e+002
 2,468350e-001; 1,842340e+002
 2,474950e-001; 1,846964e+002
 2,482150e-001; 1,852199e+002
 2,488150e-001; 1,856910e+002
 2,495350e-001; 1,861622e+002
 2,501950e-001; 1,866682e+002
 2,508550e-001; 1,871742e+002
 2,514550e-001; 1,876367e+002
 2,521750e-001; 1,881514e+002
 2,528350e-001; 1,886400e+002
 2,535550e-001; 1,892159e+002
 2,542150e-001; 1,896521e+002
 2,554750e-001; 1,906816e+002
 2,561950e-001; 1,912138e+002
 2,568550e-001; 1,917286e+002
 2,575150e-001; 1,922434e+002
 2,581750e-001; 1,927581e+002
 2,588350e-001; 1,932729e+002
 2,594950e-001; 1,937877e+002
 2,601550e-001; 1,943199e+002
 2,608150e-001; 1,948259e+002
 2,614750e-001; 1,953320e+002
 2,621350e-001; 1,958467e+002
 2,627950e-001; 1,963702e+002
 2,634550e-001; 1,968850e+002
 2,641150e-001; 1,974346e+002
 2,648350e-001; 1,979494e+002
 2,654950e-001; 1,984729e+002
 2,661550e-001; 1,989789e+002
 2,668150e-001; 1,994937e+002
 2,675950e-001; 2,000695e+002
 2,681350e-001; 2,004971e+002
 2,688550e-001; 2,010031e+002
 2,701750e-001; 2,020501e+002
 2,708950e-001; 2,025474e+002
 2,715550e-001; 2,030796e+002
 2,722150e-001; 2,036031e+002
 2,728750e-001; 2,040917e+002
 2,735350e-001; 2,045977e+002
 2,741350e-001; 2,051125e+002
 2,748550e-001; 2,056011e+002
 2,755150e-001; 2,061159e+002
 2,761750e-001; 2,066219e+002
 2,768950e-001; 2,071105e+002
 2,774950e-001; 2,076340e+002
 2,781550e-001; 2,081313e+002
 2,788150e-001; 2,086286e+002
 2,794750e-001; 2,091608e+002
 2,801350e-001; 2,096843e+002
 2,808550e-001; 2,101729e+002
 2,815750e-001; 2,107749e+002
 2,821750e-001; 2,112199e+002
 2,827750e-001; 2,117259e+002
 2,841550e-001; 2,127816e+002
 2,848150e-001; 2,132789e+002
 2,854750e-001; 2,138286e+002
 2,861350e-001; 2,143521e+002
 2,868550e-001; 2,148843e+002
 2,875150e-001; 2,154078e+002
 2,881750e-001; 2,159662e+002
 2,888950e-001; 2,164722e+002
 2,895550e-001; 2,170045e+002
 2,902150e-001; 2,175018e+002
 2,908750e-001; 2,180340e+002
 2,915350e-001; 2,185313e+002
 2,921950e-001; 2,190548e+002
 2,928550e-001; 2,195347e+002
 2,935150e-001; 2,200320e+002
 2,941150e-001; 2,205380e+002
 2,947750e-001; 2,210615e+002
 2,954950e-001; 2,215676e+002
 2,961550e-001; 2,220910e+002
 2,968750e-001; 2,226145e+002
 2,981950e-001; 2,236353e+002
 2,988550e-001; 2,241239e+002
 2,995150e-001; 2,246387e+002
 3,001150e-001; 2,251622e+002
 3,008350e-001; 2,256682e+002
 3,014950e-001; 2,261481e+002
 3,021550e-001; 2,266978e+002
 3,028150e-001; 2,271951e+002
 3,035350e-001; 2,276837e+002
 3,041950e-001; 2,281897e+002
 3,047950e-001; 2,287132e+002
 3,054550e-001; 2,291931e+002
 3,061750e-001; 2,296991e+002
 3,068350e-001; 2,302139e+002
 3,074950e-001; 2,307286e+002
 3,082150e-001; 2,312434e+002
 3,088750e-001; 2,317407e+002
 3,095350e-001; 2,322642e+002
 3,101950e-001; 2,327615e+002
 3,107950e-001; 2,332763e+002
 3,121750e-001; 2,342796e+002
 3,127750e-001; 2,347944e+002
 3,134950e-001; 2,353092e+002
 3,141550e-001; 2,358239e+002
 3,148150e-001; 2,363300e+002
 3,155350e-001; 2,368535e+002
 3,161350e-001; 2,373595e+002
 3,167950e-001; 2,378743e+002
 3,175150e-001; 2,383629e+002
 3,181750e-001; 2,388864e+002
 3,187750e-001; 2,394011e+002
 3,201550e-001; 2,404306e+002
 3,208150e-001; 2,409629e+002
 3,214750e-001; 2,414689e+002
 3,228550e-001; 2,424635e+002
 3,235150e-001; 2,430045e+002
 3,241750e-001; 2,435978e+002
 3,251350e-001; 2,442957e+002
 3,262150e-001; 2,450810e+002
 3,274150e-001; 2,459796e+002
 3,287350e-001; 2,469306e+002
 3,300550e-001; 2,479166e+002
 3,326350e-001; 2,499407e+002
 3,339550e-001; 2,509703e+002
 3,353350e-001; 2,519998e+002
 3,366550e-001; 2,530380e+002
 3,379750e-001; 2,540938e+002
 3,392350e-001; 2,551233e+002
 3,405550e-001; 2,561528e+002
 3,419350e-001; 2,572260e+002
 3,433150e-001; 2,582991e+002
 3,446350e-001; 2,593636e+002
 3,459550e-001; 2,604367e+002
 3,473350e-001; 2,614837e+002
 3,487150e-001; 2,625132e+002
 3,499750e-001; 2,635602e+002
 3,512950e-001; 2,645810e+002
 3,526150e-001; 2,656105e+002
 3,539350e-001; 2,666226e+002
 3,552550e-001; 2,676609e+002
 3,567550e-001; 2,687864e+002
 3,579550e-001; 2,696850e+002
 3,592750e-001; 2,707058e+002
 3,619750e-001; 2,727475e+002
 3,632950e-001; 2,737508e+002
 3,646150e-001; 2,747891e+002
 3,659950e-001; 2,758099e+002
 3,673750e-001; 2,768220e+002
 3,686350e-001; 2,778602e+002
 3,699550e-001; 2,788985e+002
 3,712750e-001; 2,799106e+002
 3,726550e-001; 2,809052e+002
 3,739750e-001; 2,819173e+002
 3,752950e-001; 2,829294e+002
 3,765550e-001; 2,839589e+002
 3,778750e-001; 2,849709e+002
 3,792550e-001; 2,860354e+002
 3,806350e-001; 2,870649e+002
 3,820150e-001; 2,880857e+002
 3,832750e-001; 2,891065e+002
 3,847150e-001; 2,900924e+002
 3,861550e-001; 2,911743e+002
 3,872950e-001; 2,920206e+002
 3,899350e-001; 2,939924e+002
 3,912550e-001; 2,950045e+002
 3,926350e-001; 2,959904e+002
 3,938950e-001; 2,970025e+002
 3,952150e-001; 2,980059e+002
 3,965350e-001; 2,990179e+002
 3,978550e-001; 3,000126e+002
 3,992350e-001; 3,010857e+002
 4,005550e-001; 3,020891e+002
 4,019950e-001; 3,031535e+002
 4,033150e-001; 3,042092e+002
 4,046950e-001; 3,052737e+002
 4,060750e-001; 3,062857e+002
 4,073350e-001; 3,073502e+002
 4,086550e-001; 3,083448e+002
 4,099750e-001; 3,093220e+002
 4,112950e-001; 3,103079e+002
 4,126150e-001; 3,113200e+002
 4,139350e-001; 3,122884e+002
 4,153150e-001; 3,132918e+002
 4,179550e-001; 3,153159e+002
 4,192750e-001; 3,163193e+002
 4,207150e-001; 3,173401e+002
 4,220350e-001; 3,183522e+002
 4,233550e-001; 3,193817e+002
 4,246150e-001; 3,204113e+002
 4,259950e-001; 3,214233e+002
 4,273150e-001; 3,224529e+002
 4,286350e-001; 3,234737e+002
 4,299550e-001; 3,244945e+002
 4,313350e-001; 3,254804e+002
 4,325950e-001; 3,265012e+002
 4,338550e-001; 3,274871e+002
 4,352350e-001; 3,284992e+002
 4,365550e-001; 3,294938e+002
 4,379950e-001; 3,305233e+002
 4,392550e-001; 3,315267e+002
 4,406950e-001; 3,325562e+002
 4,420150e-001; 3,335334e+002
 4,446550e-001; 3,355052e+002
 4,459750e-001; 3,364824e+002
 4,472950e-001; 3,374421e+002
 4,486750e-001; 3,384455e+002
 4,499350e-001; 3,394052e+002
 4,512550e-001; 3,403824e+002
 4,525750e-001; 3,413770e+002
 4,538950e-001; 3,423804e+002
 4,552150e-001; 3,433663e+002
 4,566550e-001; 3,443784e+002
 4,579750e-001; 3,453992e+002
 4,592950e-001; 3,463851e+002
 4,606750e-001; 3,473710e+002
 4,619950e-001; 3,483744e+002
 4,632550e-001; 3,493603e+002
 4,646350e-001; 3,503287e+002
 4,658950e-001; 3,513146e+002
 4,672750e-001; 3,522744e+002
 4,686550e-001; 3,532341e+002
 4,699150e-001; 3,541677e+002
 4,712350e-001; 3,551536e+002
 4,739350e-001; 3,570992e+002
 4,753750e-001; 3,580502e+002
 4,766350e-001; 3,590623e+002
 4,780150e-001; 3,600395e+002
 4,793950e-001; 3,609992e+002
 4,807150e-001; 3,619851e+002
 4,819750e-001; 3,629710e+002
 4,833550e-001; 3,639395e+002
 4,846150e-001; 3,649167e+002
 4,859350e-001; 3,659200e+002
 4,873150e-001; 3,668885e+002
 4,886350e-001; 3,678831e+002
 4,898350e-001; 3,688516e+002
 4,912150e-001; 3,698375e+002
 4,925950e-001; 3,708234e+002
 4,940350e-001; 3,718005e+002
 4,953550e-001; 3,727777e+002
 4,966750e-001; 3,737549e+002
 4,979950e-001; 3,747234e+002
 4,993150e-001; 3,756744e+002
 5,006350e-001; 3,766428e+002
 5,032750e-001; 3,785623e+002
 5,046549e-001; 3,795046e+002
 5,059150e-001; 3,804730e+002
 5,072950e-001; 3,814328e+002
 5,086150e-001; 3,823925e+002
 5,098749e-001; 3,833697e+002
 5,111949e-001; 3,843469e+002
 5,125750e-001; 3,852979e+002
 5,139549e-001; 3,862751e+002
 5,152749e-001; 3,872610e+002
 5,166550e-001; 3,882207e+002
 5,179750e-001; 3,891891e+002
 5,193549e-001; 3,902012e+002
 5,206150e-001; 3,911435e+002
 5,219350e-001; 3,921207e+002
 5,232550e-001; 3,930979e+002
 5,246350e-001; 3,940751e+002
 5,260749e-001; 3,951657e+002
 5,272149e-001; 3,960381e+002
 5,299749e-001; 3,980013e+002
 5,312949e-001; 3,989872e+002
 5,326750e-001; 3,999643e+002
 5,340550e-001; 4,009590e+002
 5,353150e-001; 4,019274e+002
 5,366350e-001; 4,029221e+002
 5,379550e-001; 4,038905e+002
 5,392750e-001; 4,048939e+002
 5,405950e-001; 4,058885e+002
 5,419149e-001; 4,068831e+002
 5,432950e-001; 4,078603e+002
 5,445549e-001; 4,088811e+002
 5,458750e-001; 4,098845e+002
 5,472550e-001; 4,108617e+002
 5,486349e-001; 4,118999e+002
 5,500150e-001; 4,129033e+002
 5,513350e-001; 4,139066e+002
 5,526550e-001; 4,148751e+002
 5,542150e-001; 4,159919e+002
 5,552950e-001; 4,167946e+002
 5,579950e-001; 4,187402e+002
 5,593150e-001; 4,196912e+002
 5,605749e-001; 4,206684e+002
 5,620149e-001; 4,216455e+002
 5,632750e-001; 4,226140e+002
 5,645950e-001; 4,235825e+002
 5,659150e-001; 4,246033e+002
 5,672350e-001; 4,255717e+002
 5,686150e-001; 4,265838e+002
 5,699350e-001; 4,275610e+002
 5,713150e-001; 4,285731e+002
 5,726350e-001; 4,295590e+002
 5,739549e-001; 4,305711e+002
 5,752150e-001; 4,315482e+002
 5,766550e-001; 4,325778e+002
 5,779750e-001; 4,335375e+002
 5,792950e-001; 4,345060e+002
 5,806150e-001; 4,354744e+002
 5,821150e-001; 4,365650e+002
 5,832550e-001; 4,373852e+002
 5,846350e-001; 4,383449e+002
 5,872750e-001; 4,402731e+002
 5,886550e-001; 4,412328e+002
 5,899749e-001; 4,421751e+002
 5,913550e-001; 4,431436e+002
 5,926149e-001; 4,440858e+002
 5,939350e-001; 4,450717e+002
 5,952550e-001; 4,460315e+002
 5,965750e-001; 4,470174e+002
 5,978950e-001; 4,479946e+002
 5,992750e-001; 4,489717e+002
 6,005350e-001; 4,499402e+002
 6,018550e-001; 4,509348e+002
 6,032349e-001; 4,519295e+002
 6,046150e-001; 4,528979e+002
 6,059350e-001; 4,538751e+002
 6,073149e-001; 4,548698e+002
 6,086950e-001; 4,558295e+002
 6,101950e-001; 4,569201e+002
 6,113350e-001; 4,577402e+002
 6,126550e-001; 4,586825e+002
 6,152950e-001; 4,605496e+002
 6,166149e-001; 4,614744e+002
 6,179349e-001; 4,624254e+002
 6,193150e-001; 4,633590e+002
 6,205750e-001; 4,643187e+002
 6,218950e-001; 4,652697e+002
 6,232150e-001; 4,662382e+002
 6,245950e-001; 4,672154e+002
 6,259750e-001; 4,682100e+002
 6,272350e-001; 4,691785e+002
 6,286150e-001; 4,701818e+002
 6,299350e-001; 4,711590e+002
 6,312550e-001; 4,721187e+002
 6,326349e-001; 4,730785e+002
 6,338950e-001; 4,740469e+002
 6,352749e-001; 4,749980e+002
 6,365950e-001; 4,759664e+002
 6,379750e-001; 4,769261e+002
 6,392950e-001; 4,778771e+002
 6,419350e-001; 4,797966e+002
 6,433150e-001; 4,807040e+002
 6,446950e-001; 4,816463e+002
 6,460150e-001; 4,825624e+002
 6,473950e-001; 4,834872e+002
 6,486549e-001; 4,843946e+002
 6,499749e-001; 4,853282e+002
 6,512949e-001; 4,862530e+002
 6,526150e-001; 4,872040e+002
 6,539350e-001; 4,881288e+002
 6,552550e-001; 4,890798e+002
 6,565750e-001; 4,900221e+002
 6,578950e-001; 4,909731e+002
 6,592150e-001; 4,919416e+002
 6,605949e-001; 4,929013e+002
 6,619149e-001; 4,938349e+002
 6,632950e-001; 4,947946e+002
 6,646150e-001; 4,957543e+002
 6,659350e-001; 4,966879e+002
 6,686950e-001; 4,985550e+002
 6,699550e-001; 4,994973e+002
 6,712750e-001; 5,004221e+002
 6,726550e-001; 5,013382e+002
 6,739750e-001; 5,022543e+002
 6,752950e-001; 5,031966e+002
 6,766149e-001; 5,040865e+002
 6,779349e-001; 5,050201e+002
 6,792549e-001; 5,059362e+002
 6,806350e-001; 5,069047e+002
 6,819550e-001; 5,078382e+002
 6,832750e-001; 5,088241e+002
 6,846550e-001; 5,097490e+002
 6,859750e-001; 5,107000e+002
 6,872950e-001; 5,116423e+002
 6,886150e-001; 5,125583e+002
 6,898749e-001; 5,134919e+002
 6,911950e-001; 5,144255e+002
 6,925750e-001; 5,153591e+002
 6,938950e-001; 5,162751e+002
 6,965950e-001; 5,181248e+002
 6,979150e-001; 5,190497e+002
 6,992350e-001; 5,199745e+002
 7,006150e-001; 5,209080e+002
 7,019950e-001; 5,218503e+002
 7,033750e-001; 5,227402e+002
 7,046950e-001; 5,236476e+002
 7,059550e-001; 5,245899e+002
 7,072750e-001; 5,255060e+002
 7,086549e-001; 5,264308e+002
 7,099150e-001; 5,273994e+002
 7,112949e-001; 5,283503e+002
 7,126750e-001; 5,292664e+002
 7,139950e-001; 5,302087e+002
 7,153150e-001; 5,311510e+002
 7,166950e-001; 5,320671e+002
 7,180150e-001; 5,330094e+002
 7,192749e-001; 5,339604e+002
 7,208350e-001; 5,349987e+002
 7,219750e-001; 5,358188e+002
 7,246150e-001; 5,376859e+002
 7,259350e-001; 5,386194e+002
 7,273149e-001; 5,395530e+002
 7,286950e-001; 5,404866e+002
 7,300150e-001; 5,414027e+002
 7,312750e-001; 5,423188e+002
 7,326550e-001; 5,432524e+002
 7,339750e-001; 5,441597e+002
 7,353550e-001; 5,451021e+002
 7,366149e-001; 5,460443e+002
 7,379349e-001; 5,470040e+002
 7,393150e-001; 5,479289e+002
 7,406350e-001; 5,489061e+002
 7,420149e-001; 5,498571e+002
 7,433349e-001; 5,507993e+002
 7,445950e-001; 5,517504e+002
 7,459750e-001; 5,526926e+002
 7,472950e-001; 5,536088e+002
 7,487950e-001; 5,546644e+002
 7,499350e-001; 5,554758e+002
 7,513149e-001; 5,564094e+002
 7,540150e-001; 5,582766e+002
 7,553350e-001; 5,591664e+002
 7,566550e-001; 5,601088e+002
 7,579750e-001; 5,610161e+002
 7,593549e-001; 5,619410e+002
 7,607350e-001; 5,628396e+002
 7,619349e-001; 5,637645e+002
 7,633150e-001; 5,646718e+002
 7,646350e-001; 5,655792e+002
 7,659550e-001; 5,664866e+002
 7,672750e-001; 5,674027e+002
 7,685350e-001; 5,683101e+002
 7,699150e-001; 5,692437e+002
 7,712350e-001; 5,701859e+002
 7,725550e-001; 5,711370e+002
 7,739350e-001; 5,720618e+002
 7,753150e-001; 5,729953e+002
 7,766350e-001; 5,739202e+002
 7,781349e-001; 5,749497e+002
 7,792749e-001; 5,757524e+002
 7,806550e-001; 5,766772e+002
 7,832950e-001; 5,784920e+002
 7,846150e-001; 5,793557e+002
 7,859350e-001; 5,802631e+002
 7,873150e-001; 5,811531e+002
 7,886350e-001; 5,820168e+002
 7,899550e-001; 5,829242e+002
 7,912750e-001; 5,838403e+002
 7,925950e-001; 5,847128e+002
 7,939750e-001; 5,856027e+002
 7,952949e-001; 5,865450e+002
 7,966149e-001; 5,874524e+002
 7,979950e-001; 5,883511e+002
 7,992550e-001; 5,892759e+002
 8,006350e-001; 5,901833e+002
 8,018950e-001; 5,910906e+002
 8,032750e-001; 5,919893e+002
 8,046550e-001; 5,929054e+002
 8,060949e-001; 5,939349e+002
 8,072349e-001; 5,947289e+002
 8,085549e-001; 5,956276e+002
 8,113149e-001; 5,974249e+002
 8,126349e-001; 5,983410e+002
 8,139549e-001; 5,992396e+002
 8,152750e-001; 6,001208e+002
 8,167149e-001; 6,010108e+002
 8,179750e-001; 6,018746e+002
 8,192950e-001; 6,027383e+002
 8,206150e-001; 6,036021e+002
 8,219349e-001; 6,044920e+002
 8,232549e-001; 6,053820e+002
 8,246350e-001; 6,062631e+002
 8,258950e-001; 6,071705e+002
 8,272150e-001; 6,080605e+002
 8,285950e-001; 6,089853e+002
 8,300350e-001; 6,098927e+002
 8,312950e-001; 6,108350e+002
 8,326750e-001; 6,117423e+002
 8,339350e-001; 6,126584e+002
 8,353150e-001; 6,135484e+002
 8,365750e-001; 6,144557e+002
 8,392749e-001; 6,162269e+002
 8,406550e-001; 6,171255e+002
 8,419750e-001; 6,180068e+002
 8,432950e-001; 6,188705e+002
 8,446150e-001; 6,197779e+002
 8,459350e-001; 6,206678e+002
 8,473750e-001; 6,215665e+002
 8,486950e-001; 6,224477e+002
 8,499550e-001; 6,233638e+002
 8,513350e-001; 6,242451e+002
 8,526550e-001; 6,251262e+002
 8,539749e-001; 6,260074e+002
 8,552949e-001; 6,269149e+002
 8,566149e-001; 6,277873e+002
 8,578750e-001; 6,286772e+002
 8,594350e-001; 6,296806e+002
 8,605750e-001; 6,304745e+002
 8,632750e-001; 6,322632e+002
 8,645949e-001; 6,331531e+002
 8,659750e-001; 6,340430e+002
 8,672950e-001; 6,349330e+002
 8,686150e-001; 6,358403e+002
 8,699949e-001; 6,367128e+002
 8,713750e-001; 6,375679e+002
 8,726349e-001; 6,384316e+002
 8,738950e-001; 6,393128e+002
 8,752750e-001; 6,401678e+002
 8,765950e-001; 6,410403e+002
 8,780349e-001; 6,419478e+002
 8,792950e-001; 6,428202e+002
 8,806149e-001; 6,436927e+002
 8,819349e-001; 6,445739e+002
 8,832549e-001; 6,454551e+002
 8,845749e-001; 6,463276e+002
 8,858950e-001; 6,472350e+002
 8,873349e-001; 6,482471e+002
 8,886549e-001; 6,490410e+002
 8,899750e-001; 6,499397e+002
 8,912950e-001; 6,508383e+002
 8,939950e-001; 6,526357e+002
 8,953750e-001; 6,534994e+002
 8,966950e-001; 6,543632e+002
 8,979549e-001; 6,552095e+002
 8,992150e-001; 6,560558e+002
 9,005350e-001; 6,568759e+002
 9,019750e-001; 6,577222e+002
 9,032950e-001; 6,585773e+002
 9,046150e-001; 6,594672e+002
 9,059350e-001; 6,603135e+002
 9,072550e-001; 6,611947e+002
 9,086350e-001; 6,620759e+002
 9,099550e-001; 6,629572e+002
 9,112750e-001; 6,638122e+002
 9,127750e-001; 6,647719e+002
 9,139150e-001; 6,655571e+002
 9,165550e-001; 6,672934e+002
 9,179350e-001; 6,681397e+002
 9,192550e-001; 6,690122e+002
 9,206350e-001; 6,698759e+002
 9,219550e-001; 6,707135e+002
 9,232750e-001; 6,715773e+002
 9,246550e-001; 6,724498e+002
 9,259750e-001; 6,732786e+002
 9,272950e-001; 6,741162e+002
 9,286150e-001; 6,749451e+002
 9,300550e-001; 6,757652e+002
 9,313149e-001; 6,765766e+002
 9,326349e-001; 6,774055e+002
 9,339550e-001; 6,782430e+002
 9,352750e-001; 6,790806e+002
 9,365950e-001; 6,798920e+002
 9,378549e-001; 6,807471e+002
 9,391750e-001; 6,816021e+002
 9,407350e-001; 6,825532e+002
 9,419349e-001; 6,833122e+002
 9,432549e-001; 6,842109e+002
 9,459550e-001; 6,859558e+002
 9,473950e-001; 6,867934e+002
 9,486549e-001; 6,876310e+002
 9,499150e-001; 6,884686e+002
 9,512950e-001; 6,892625e+002
 9,526150e-001; 6,900914e+002
 9,539350e-001; 6,909290e+002
 9,552550e-001; 6,917578e+002
 9,565750e-001; 6,925693e+002
 9,579549e-001; 6,934069e+002
 9,592749e-001; 6,942270e+002
 9,606550e-001; 6,950384e+002
 9,619750e-001; 6,958847e+002
 9,632950e-001; 6,967223e+002
 9,646150e-001; 6,975860e+002
 9,659350e-001; 6,984410e+002
 9,673750e-001; 6,993223e+002
 9,688750e-001; 7,002820e+002
 9,699550e-001; 7,010411e+002
 9,712750e-001; 7,018787e+002
 9,739749e-001; 7,035451e+002
 9,752949e-001; 7,043827e+002
 9,766150e-001; 7,052290e+002
 9,779350e-001; 7,060666e+002
 9,793150e-001; 7,068867e+002
 9,806350e-001; 7,077330e+002
 9,819550e-001; 7,085793e+002
 9,833350e-001; 7,093907e+002
 9,847150e-001; 7,102021e+002
 9,860350e-001; 7,110135e+002
 9,872950e-001; 7,118250e+002
 9,886150e-001; 7,125928e+002
 9,899350e-001; 7,134129e+002
 9,912550e-001; 7,142330e+002
 9,925750e-001; 7,150706e+002
 9,938950e-001; 7,158995e+002
 9,952149e-001; 7,167458e+002
 9,967750e-001; 7,176793e+002
 9,979150e-001; 7,183860e+002
 9,992350e-001; 7,192324e+002
 1,001995e+000; 7,209337e+002
 1,003315e+000; 7,217538e+002
 1,004755e+000; 7,226089e+002
 1,006015e+000; 7,234290e+002
 1,007275e+000; 7,242317e+002
 1,008655e+000; 7,250344e+002
 1,009975e+000; 7,258458e+002
 1,011295e+000; 7,266398e+002
 1,012615e+000; 7,274250e+002
 1,013935e+000; 7,282277e+002
 1,015315e+000; 7,290129e+002
 1,016635e+000; 7,298505e+002
 1,017955e+000; 7,306706e+002
 1,019275e+000; 7,314995e+002
 1,020655e+000; 7,323196e+002
 1,021975e+000; 7,331572e+002
 1,023295e+000; 7,339686e+002
 1,024615e+000; 7,347800e+002
 1,026115e+000; 7,357048e+002
 1,027315e+000; 7,364203e+002
 1,029955e+000; 7,380605e+002
 1,031275e+000; 7,388719e+002
 1,032595e+000; 7,396660e+002
 1,033915e+000; 7,405035e+002
 1,035235e+000; 7,412975e+002
 1,036615e+000; 7,421176e+002
 1,037995e+000; 7,429465e+002
 1,039375e+000; 7,437666e+002
 1,040695e+000; 7,445605e+002
 1,042015e+000; 7,453545e+002
 1,043335e+000; 7,461572e+002
 1,044655e+000; 7,469424e+002
 1,045975e+000; 7,477451e+002
 1,047355e+000; 7,485303e+002
 1,048615e+000; 7,493418e+002
 1,049995e+000; 7,501619e+002
 1,051255e+000; 7,509733e+002
 1,052755e+000; 7,518981e+002
 1,053895e+000; 7,526310e+002
 1,056655e+000; 7,543149e+002
 1,058035e+000; 7,551613e+002
 1,059295e+000; 7,559988e+002
 1,060615e+000; 7,568102e+002
 1,061935e+000; 7,576216e+002
 1,063255e+000; 7,584243e+002
 1,064635e+000; 7,592532e+002
 1,065955e+000; 7,600646e+002
 1,067335e+000; 7,608673e+002
 1,068595e+000; 7,616438e+002
 1,069915e+000; 7,624465e+002
 1,071235e+000; 7,632317e+002
 1,072555e+000; 7,640170e+002
 1,073995e+000; 7,648109e+002
 1,075375e+000; 7,656310e+002
 1,076695e+000; 7,663988e+002
 1,077955e+000; 7,672103e+002
 1,079335e+000; 7,680304e+002
 1,080655e+000; 7,688418e+002
 1,081975e+000; 7,696619e+002
 1,084615e+000; 7,712847e+002
 1,085935e+000; 7,720787e+002
 1,087255e+000; 7,728814e+002
 1,088575e+000; 7,736841e+002
 1,089895e+000; 7,745042e+002
 1,091215e+000; 7,753156e+002
 1,092715e+000; 7,761445e+002
 1,093975e+000; 7,769733e+002
 1,095355e+000; 7,777585e+002
 1,096675e+000; 7,785526e+002
 1,097995e+000; 7,793378e+002
 1,099315e+000; 7,801055e+002
 1,100635e+000; 7,808734e+002
 1,101955e+000; 7,816848e+002
 1,103215e+000; 7,824438e+002
 1,104595e+000; 7,832552e+002
 1,105915e+000; 7,840405e+002
 1,107415e+000; 7,849304e+002
 1,108555e+000; 7,856371e+002
 1,109875e+000; 7,864834e+002
 1,112695e+000; 7,881324e+002
 1,114015e+000; 7,889438e+002
 1,115275e+000; 7,897640e+002
 1,116715e+000; 7,905667e+002
 1,117975e+000; 7,913344e+002
 1,119355e+000; 7,921371e+002
 1,120615e+000; 7,929398e+002
 1,121935e+000; 7,937076e+002
 1,123315e+000; 7,944753e+002
 1,124575e+000; 7,952693e+002
 1,125895e+000; 7,960458e+002
 1,127215e+000; 7,967961e+002
 1,128655e+000; 7,975814e+002
 1,129915e+000; 7,983405e+002
 1,131295e+000; 7,991257e+002
 1,132615e+000; 7,998848e+002
 1,133995e+000; 8,006874e+002
 1,135495e+000; 8,015599e+002
 1,136575e+000; 8,022579e+002
 1,137895e+000; 8,030432e+002
 1,139275e+000; 8,038284e+002
 1,141915e+000; 8,054163e+002
 1,143355e+000; 8,061666e+002
 1,144615e+000; 8,069694e+002
 1,145875e+000; 8,077546e+002
 1,147255e+000; 8,085485e+002
 1,148635e+000; 8,093512e+002
 1,150015e+000; 8,101626e+002
 1,151335e+000; 8,109304e+002
 1,152655e+000; 8,117331e+002
 1,153975e+000; 8,125096e+002
 1,155355e+000; 8,132599e+002
 1,156675e+000; 8,140190e+002
 1,157935e+000; 8,147693e+002
 1,159255e+000; 8,155022e+002
 1,160635e+000; 8,162526e+002
 1,161955e+000; 8,170029e+002
 1,163215e+000; 8,177620e+002
 1,164715e+000; 8,186693e+002
 1,165915e+000; 8,193237e+002
 1,167295e+000; 8,201002e+002
 1,169995e+000; 8,216794e+002
 1,171315e+000; 8,224210e+002
 1,172695e+000; 8,231888e+002
 1,173895e+000; 8,239566e+002
 1,175275e+000; 8,247244e+002
 1,176595e+000; 8,254747e+002
 1,177915e+000; 8,262512e+002
 1,179295e+000; 8,270016e+002
 1,180615e+000; 8,277606e+002
 1,181995e+000; 8,284848e+002
 1,183255e+000; 8,292351e+002
 1,184575e+000; 8,299855e+002
 1,185955e+000; 8,307358e+002
 1,187275e+000; 8,314861e+002
 1,188655e+000; 8,322626e+002
 1,190035e+000; 8,330130e+002
 1,191355e+000; 8,337458e+002
 1,192615e+000; 8,345049e+002
 1,194055e+000; 8,353425e+002
 1,195255e+000; 8,359969e+002
 1,197955e+000; 8,375586e+002
 1,199275e+000; 8,382915e+002
 1,200595e+000; 8,390680e+002
 1,201855e+000; 8,398358e+002
 1,203295e+000; 8,406123e+002
 1,204615e+000; 8,413714e+002
 1,205995e+000; 8,421566e+002
 1,207375e+000; 8,429331e+002
 1,208635e+000; 8,436747e+002
 1,210015e+000; 8,444163e+002
 1,211275e+000; 8,451580e+002
 1,212655e+000; 8,458909e+002
 1,213975e+000; 8,466063e+002
 1,215295e+000; 8,473479e+002
 1,216615e+000; 8,480895e+002
 1,217935e+000; 8,488224e+002
 1,219315e+000; 8,495727e+002
 1,220755e+000; 8,504277e+002
 1,221835e+000; 8,510995e+002
 1,223275e+000; 8,518586e+002
 1,225975e+000; 8,534203e+002
 1,227295e+000; 8,541707e+002
 1,228615e+000; 8,549210e+002
 1,229935e+000; 8,556801e+002
 1,231255e+000; 8,564130e+002
 1,232635e+000; 8,571721e+002
 1,233955e+000; 8,579224e+002
 1,235275e+000; 8,586902e+002
 1,236595e+000; 8,594318e+002
 1,237975e+000; 8,601821e+002
 1,239295e+000; 8,609237e+002
 1,240615e+000; 8,616653e+002
 1,241995e+000; 8,624070e+002
 1,243315e+000; 8,631486e+002
 1,244695e+000; 8,638902e+002
 1,246015e+000; 8,646143e+002
 1,247335e+000; 8,653210e+002
 1,248775e+000; 8,661237e+002
 1,249915e+000; 8,667693e+002
 1,252615e+000; 8,682264e+002
 1,253935e+000; 8,689855e+002
 1,255315e+000; 8,697009e+002
 1,256635e+000; 8,704426e+002
 1,257895e+000; 8,711754e+002
 1,259215e+000; 8,719432e+002
 1,260535e+000; 8,726935e+002
 1,261915e+000; 8,734700e+002
 1,263295e+000; 8,742117e+002
 1,264675e+000; 8,749532e+002
 1,265995e+000; 8,756687e+002
 1,267315e+000; 8,764016e+002
 1,268635e+000; 8,771345e+002
 1,269955e+000; 8,778674e+002
 1,271275e+000; 8,786003e+002
 1,272655e+000; 8,793069e+002
 1,274035e+000; 8,800224e+002
 1,275355e+000; 8,807204e+002
 1,276735e+000; 8,815318e+002
 1,277935e+000; 8,821687e+002
 1,279255e+000; 8,829016e+002
 1,281955e+000; 8,843936e+002
 1,283275e+000; 8,851439e+002
 1,284655e+000; 8,858942e+002
 1,285975e+000; 8,866620e+002
 1,287295e+000; 8,873949e+002
 1,288615e+000; 8,881191e+002
 1,289935e+000; 8,888432e+002
 1,291255e+000; 8,895674e+002
 1,292575e+000; 8,902916e+002
 1,293895e+000; 8,910244e+002
 1,295275e+000; 8,917573e+002
 1,296595e+000; 8,924815e+002
 1,297975e+000; 8,931969e+002
 1,299355e+000; 8,939124e+002
 1,300675e+000; 8,946278e+002
 1,301995e+000; 8,953519e+002
 1,303315e+000; 8,960674e+002
 1,304875e+000; 8,968788e+002
 1,306015e+000; 8,975070e+002
 1,307275e+000; 8,982224e+002
 1,309915e+000; 8,996620e+002
 1,311235e+000; 9,003774e+002
 1,312615e+000; 9,010929e+002
 1,313935e+000; 9,018432e+002
 1,315375e+000; 9,025848e+002
 1,316635e+000; 9,033090e+002
 1,318015e+000; 9,040506e+002
 1,319335e+000; 9,047835e+002
 1,320715e+000; 9,054990e+002
 1,322035e+000; 9,062056e+002
 1,323295e+000; 9,069124e+002
 1,324615e+000; 9,076278e+002
 1,325935e+000; 9,083258e+002
 1,327315e+000; 9,090325e+002
 1,328635e+000; 9,097217e+002
 1,330015e+000; 9,104372e+002
 1,331455e+000; 9,112137e+002
 1,332655e+000; 9,118070e+002
 1,335235e+000; 9,132204e+002
 1,336615e+000; 9,139271e+002
 1,337995e+000; 9,146513e+002
 1,339315e+000; 9,153754e+002
 1,340635e+000; 9,161171e+002
 1,342015e+000; 9,168412e+002
 1,343275e+000; 9,175654e+002
 1,344655e+000; 9,182721e+002
 1,345975e+000; 9,189875e+002
 1,347295e+000; 9,196855e+002
 1,348615e+000; 9,203922e+002
 1,349935e+000; 9,211077e+002
 1,351255e+000; 9,218144e+002
 1,352635e+000; 9,225124e+002
 1,353955e+000; 9,232191e+002
 1,355335e+000; 9,239083e+002
 1,356715e+000; 9,245976e+002
 1,358035e+000; 9,252956e+002
 1,359535e+000; 9,260808e+002
 1,360675e+000; 9,266829e+002
 1,363255e+000; 9,280875e+002
 1,364635e+000; 9,287855e+002
 1,365895e+000; 9,294922e+002
 1,367275e+000; 9,301990e+002
 1,368595e+000; 9,309056e+002
 1,369915e+000; 9,315949e+002
 1,371235e+000; 9,323104e+002
 1,372555e+000; 9,330433e+002
 1,373935e+000; 9,337761e+002
 1,375315e+000; 9,344916e+002
 1,376695e+000; 9,352245e+002
 1,378015e+000; 9,359399e+002
 1,379335e+000; 9,366030e+002
 1,380715e+000; 9,372835e+002
 1,382035e+000; 9,379641e+002
 1,383355e+000; 9,386359e+002
 1,384615e+000; 9,393164e+002
 1,386175e+000; 9,400755e+002
 1,387315e+000; 9,406513e+002
 1,389955e+000; 9,420298e+002
 1,391275e+000; 9,426929e+002
 1,392595e+000; 9,433997e+002
 1,393975e+000; 9,441238e+002
 1,395355e+000; 9,448043e+002
 1,396615e+000; 9,455023e+002
 1,397995e+000; 9,462178e+002
 1,399255e+000; 9,469070e+002
 1,400635e+000; 9,475876e+002
 1,401955e+000; 9,482681e+002
 1,403275e+000; 9,489835e+002
 1,404595e+000; 9,496379e+002
 1,405975e+000; 9,503184e+002
 1,407235e+000; 9,509902e+002
 1,408555e+000; 9,516533e+002
 1,410175e+000; 9,524211e+002
 1,411255e+000; 9,530144e+002
 1,412635e+000; 9,537037e+002
 1,415335e+000; 9,550560e+002
 1,416655e+000; 9,556929e+002
 1,417975e+000; 9,563560e+002
 1,419355e+000; 9,570016e+002
 1,420615e+000; 9,576735e+002
 1,421935e+000; 9,583453e+002
 1,423255e+000; 9,590345e+002
 1,424575e+000; 9,597151e+002
 1,425955e+000; 9,603956e+002
 1,427215e+000; 9,610762e+002
 1,428595e+000; 9,617480e+002
 1,429915e+000; 9,624373e+002
 1,431295e+000; 9,631178e+002
 1,432675e+000; 9,638070e+002
 1,433995e+000; 9,645050e+002
 1,435315e+000; 9,651594e+002
 1,436635e+000; 9,658137e+002
 1,437955e+000; 9,664943e+002
 1,439215e+000; 9,671573e+002
 1,441915e+000; 9,684661e+002
 1,443295e+000; 9,691292e+002
 1,444615e+000; 9,697748e+002
 1,445935e+000; 9,704205e+002
 1,447315e+000; 9,711010e+002
 1,448635e+000; 9,717641e+002
 1,449955e+000; 9,724534e+002
 1,451275e+000; 9,730990e+002
 1,452595e+000; 9,737795e+002
 1,453915e+000; 9,744514e+002
 1,455295e+000; 9,751057e+002
 1,456615e+000; 9,757688e+002
 1,457935e+000; 9,764755e+002
 1,459255e+000; 9,771386e+002
 1,460635e+000; 9,778104e+002
 1,461955e+000; 9,784910e+002
 1,463275e+000; 9,791279e+002
 1,464775e+000; 9,798782e+002
 1,465915e+000; 9,804453e+002
 1,467295e+000; 9,811171e+002
 1,470055e+000; 9,824520e+002
 1,471375e+000; 9,831151e+002
 1,472635e+000; 9,837433e+002
 1,473955e+000; 9,843715e+002
 1,475275e+000; 9,850258e+002
 1,476655e+000; 9,856889e+002
 1,477975e+000; 9,863171e+002
 1,479295e+000; 9,869977e+002
 1,480615e+000; 9,876608e+002
 1,481935e+000; 9,883064e+002
 1,483195e+000; 9,889520e+002
 1,484575e+000; 9,896500e+002
 1,485955e+000; 9,903044e+002
 1,487275e+000; 9,909762e+002
 1,488655e+000; 9,916393e+002
 1,489975e+000; 9,923286e+002
 1,491475e+000; 9,930527e+002
 1,492615e+000; 9,936373e+002
 1,493995e+000; 9,942916e+002
 1,496635e+000; 9,955654e+002
 1,497955e+000; 9,961849e+002
 1,499275e+000; 9,968218e+002
 1,500535e+000; 9,974413e+002
 1,501915e+000; 9,980956e+002
 1,503295e+000; 9,987238e+002
 1,504615e+000; 9,993869e+002
 1,505935e+000; 1,000024e+003
 1,507315e+000; 1,000678e+003
 1,508635e+000; 1,001315e+003
 1,509955e+000; 1,001969e+003
 1,511215e+000; 1,002624e+003
 1,512535e+000; 1,003261e+003
 1,513915e+000; 1,003915e+003
 1,515295e+000; 1,004561e+003
 1,516615e+000; 1,005224e+003
 1,517935e+000; 1,005852e+003
 1,519495e+000; 1,006576e+003
 1,520575e+000; 1,007143e+003
 1,523275e+000; 1,008417e+003
 1,524655e+000; 1,009063e+003
 1,525975e+000; 1,009717e+003
 1,527355e+000; 1,010310e+003
 1,528615e+000; 1,010912e+003
 1,529995e+000; 1,011549e+003
 1,531255e+000; 1,012169e+003
 1,532575e+000; 1,012806e+003
 1,533955e+000; 1,013443e+003
 1,535275e+000; 1,014071e+003
 1,536595e+000; 1,014708e+003
 1,537975e+000; 1,015336e+003
 1,539235e+000; 1,015964e+003
 1,540555e+000; 1,016610e+003
 1,541935e+000; 1,017264e+003
 1,543255e+000; 1,017927e+003
 1,544695e+000; 1,018582e+003
 1,546015e+000; 1,019219e+003
 1,547515e+000; 1,019908e+003
 1,548655e+000; 1,020466e+003
 1,551295e+000; 1,021670e+003
 1,552615e+000; 1,022307e+003
 1,553935e+000; 1,022927e+003
 1,555315e+000; 1,023502e+003
 1,556575e+000; 1,024122e+003
 1,557895e+000; 1,024733e+003
 1,559215e+000; 1,025308e+003
 1,560595e+000; 1,025945e+003
 1,561975e+000; 1,026573e+003
 1,563295e+000; 1,027202e+003
 1,564615e+000; 1,027830e+003
 1,565995e+000; 1,028484e+003
 1,567315e+000; 1,029078e+003
 1,568635e+000; 1,029723e+003
 1,569955e+000; 1,030343e+003
 1,571275e+000; 1,030962e+003
 1,572595e+000; 1,031573e+003
 1,574095e+000; 1,032280e+003
 1,575295e+000; 1,032821e+003
 1,576615e+000; 1,033449e+003
 1,579315e+000; 1,034688e+003
 1,580695e+000; 1,035307e+003
 1,581955e+000; 1,035918e+003
 1,583275e+000; 1,036546e+003
 1,584715e+000; 1,037122e+003
 1,585975e+000; 1,037706e+003
 1,587295e+000; 1,038308e+003
 1,588555e+000; 1,038928e+003
 1,589995e+000; 1,039504e+003
 1,591255e+000; 1,040141e+003
 1,592635e+000; 1,040769e+003
 1,593955e+000; 1,041371e+003
 1,595215e+000; 1,041955e+003
 1,596535e+000; 1,042584e+003
 1,597855e+000; 1,043177e+003
 1,599295e+000; 1,043805e+003
 1,600615e+000; 1,044442e+003
 1,601995e+000; 1,045088e+003
 1,603555e+000; 1,045768e+003
 1,604755e+000; 1,046318e+003
 1,606075e+000; 1,046894e+003
 1,608715e+000; 1,048072e+003
 1,609975e+000; 1,048665e+003
 1,611295e+000; 1,049232e+003
 1,612615e+000; 1,049834e+003
 1,613995e+000; 1,050392e+003
 1,615255e+000; 1,050994e+003
 1,616635e+000; 1,051596e+003
 1,617955e+000; 1,052198e+003
 1,619275e+000; 1,052800e+003
 1,620595e+000; 1,053411e+003
 1,622035e+000; 1,054013e+003
 1,623295e+000; 1,054615e+003
 1,624615e+000; 1,055235e+003
 1,625935e+000; 1,055828e+003
 1,627315e+000; 1,056430e+003
 1,628695e+000; 1,057023e+003
 1,629955e+000; 1,057625e+003
 1,631455e+000; 1,058288e+003
 1,632655e+000; 1,058812e+003
 1,633915e+000; 1,059414e+003
 1,636615e+000; 1,060600e+003
 1,638055e+000; 1,061211e+003
 1,639375e+000; 1,061796e+003
 1,640635e+000; 1,062389e+003
 1,642015e+000; 1,062956e+003
 1,643335e+000; 1,063541e+003
 1,644655e+000; 1,064108e+003
 1,646035e+000; 1,064684e+003
 1,647295e+000; 1,065251e+003
 1,648615e+000; 1,065844e+003
 1,649935e+000; 1,066420e+003
 1,651255e+000; 1,067004e+003
 1,652575e+000; 1,067572e+003
 1,653895e+000; 1,068182e+003
 1,655275e+000; 1,068758e+003
 1,656655e+000; 1,069343e+003
 1,658035e+000; 1,069936e+003
 1,659295e+000; 1,070529e+003
 1,660675e+000; 1,071096e+003
 1,661935e+000; 1,071681e+003
 1,663255e+000; 1,072257e+003
 1,666015e+000; 1,073417e+003
 1,667335e+000; 1,073993e+003
 1,668595e+000; 1,074543e+003
 1,669975e+000; 1,075110e+003
 1,671235e+000; 1,075677e+003
 1,672675e+000; 1,076253e+003
 1,673935e+000; 1,076802e+003
 1,675375e+000; 1,077396e+003
 1,676635e+000; 1,077989e+003
 1,678015e+000; 1,078530e+003
 1,679335e+000; 1,079115e+003
 1,680715e+000; 1,079699e+003
 1,681975e+000; 1,080275e+003
 1,683295e+000; 1,080833e+003
 1,684615e+000; 1,081435e+003
 1,685995e+000; 1,081994e+003
 1,687495e+000; 1,082639e+003
 1,688575e+000; 1,083137e+003
 1,689955e+000; 1,083713e+003
 1,692655e+000; 1,084873e+003
 1,693975e+000; 1,085440e+003
 1,695355e+000; 1,086016e+003
 1,696615e+000; 1,086566e+003
 1,697995e+000; 1,087133e+003
 1,699255e+000; 1,087674e+003
 1,700635e+000; 1,088232e+003
 1,701895e+000; 1,088773e+003
 1,703275e+000; 1,089349e+003
 1,704655e+000; 1,089890e+003
 1,705975e+000; 1,090457e+003
 1,707295e+000; 1,091024e+003
 1,708495e+000; 1,091591e+003
 1,709875e+000; 1,092176e+003
 1,711255e+000; 1,092734e+003
 1,712635e+000; 1,093319e+003
 1,713955e+000; 1,093886e+003
 1,715275e+000; 1,094470e+003
 1,716655e+000; 1,095029e+003
 1,718035e+000; 1,095604e+003
 1,719355e+000; 1,096163e+003
 1,721995e+000; 1,097280e+003
 1,723315e+000; 1,097812e+003
 1,724575e+000; 1,098370e+003
 1,725955e+000; 1,098920e+003
 1,727215e+000; 1,099478e+003
 1,728595e+000; 1,100037e+003
 1,730035e+000; 1,100595e+003
 1,731355e+000; 1,101145e+003
 1,732675e+000; 1,101703e+003
 1,733995e+000; 1,102244e+003
 1,735255e+000; 1,102794e+003
 1,736515e+000; 1,103335e+003
 1,737955e+000; 1,103884e+003
 1,739275e+000; 1,104443e+003
 1,740595e+000; 1,105001e+003
 1,741975e+000; 1,105551e+003
 1,743295e+000; 1,106127e+003
 1,744615e+000; 1,106694e+003
 1,746055e+000; 1,107270e+003
 1,747255e+000; 1,107776e+003
 1,750075e+000; 1,108875e+003
 1,751335e+000; 1,109416e+003
 1,752655e+000; 1,109992e+003
 1,754035e+000; 1,110515e+003
 1,755355e+000; 1,111056e+003
 1,756675e+000; 1,111597e+003
 1,757995e+000; 1,112129e+003
 1,759315e+000; 1,112618e+003
 1,760695e+000; 1,113168e+003
 1,761895e+000; 1,113674e+003
 1,763215e+000; 1,114206e+003
 1,764535e+000; 1,114729e+003
 1,765915e+000; 1,115305e+003
 1,767295e+000; 1,115829e+003
 1,768555e+000; 1,116387e+003
 1,769995e+000; 1,116937e+003
 1,771315e+000; 1,117478e+003
 1,772755e+000; 1,118071e+003
 1,773895e+000; 1,118533e+003
 1,776655e+000; 1,119606e+003
 1,777915e+000; 1,120139e+003
 1,779295e+000; 1,120680e+003
 1,780675e+000; 1,121221e+003
 1,781935e+000; 1,121761e+003
 1,783255e+000; 1,122259e+003
 1,784575e+000; 1,122782e+003
 1,785955e+000; 1,123288e+003
 1,787275e+000; 1,123821e+003
 1,788655e+000; 1,124335e+003
 1,789975e+000; 1,124850e+003
 1,791295e+000; 1,125391e+003
 1,792615e+000; 1,125923e+003
 1,793995e+000; 1,126438e+003
 1,795255e+000; 1,126953e+003
 1,796575e+000; 1,127468e+003
 1,797835e+000; 1,127982e+003
 1,799215e+000; 1,128497e+003
 1,800595e+000; 1,129029e+003
 1,801915e+000; 1,129562e+003
 1,804675e+000; 1,130661e+003
 1,805995e+000; 1,131202e+003
 1,807315e+000; 1,131708e+003
 1,808635e+000; 1,132240e+003
 1,809955e+000; 1,132772e+003
 1,811275e+000; 1,133278e+003
 1,812595e+000; 1,133793e+003
 1,813975e+000; 1,134308e+003
 1,815295e+000; 1,134805e+003
 1,816615e+000; 1,135302e+003
 1,817935e+000; 1,135800e+003
 1,819255e+000; 1,136306e+003
 1,820575e+000; 1,136838e+003
 1,821895e+000; 1,137370e+003
 1,823215e+000; 1,137911e+003
 1,824595e+000; 1,138426e+003
 1,825975e+000; 1,138976e+003
 1,827295e+000; 1,139508e+003
 1,828735e+000; 1,140084e+003
 1,829935e+000; 1,140546e+003
 1,831255e+000; 1,141087e+003
 1,833955e+000; 1,142099e+003
 1,835335e+000; 1,142631e+003
 1,836655e+000; 1,143120e+003
 1,837975e+000; 1,143626e+003
 1,839295e+000; 1,144149e+003
 1,840615e+000; 1,144664e+003
 1,841995e+000; 1,145161e+003
 1,843315e+000; 1,145676e+003
 1,844695e+000; 1,146182e+003
 1,846015e+000; 1,146688e+003
 1,847275e+000; 1,147177e+003
 1,848655e+000; 1,147666e+003
 1,849915e+000; 1,148172e+003
 1,851175e+000; 1,148686e+003
 1,852555e+000; 1,149192e+003
 1,853935e+000; 1,149716e+003
 1,855315e+000; 1,150257e+003
 1,856635e+000; 1,150763e+003
 1,858075e+000; 1,151339e+003
 1,859215e+000; 1,151766e+003
 1,860535e+000; 1,152281e+003
 1,863295e+000; 1,153284e+003
 1,864675e+000; 1,153799e+003
 1,865995e+000; 1,154305e+003
 1,867375e+000; 1,154802e+003
 1,868755e+000; 1,155300e+003
 1,869955e+000; 1,155780e+003
 1,871275e+000; 1,156260e+003
 1,872655e+000; 1,156757e+003
 1,873975e+000; 1,157202e+003
 1,875295e+000; 1,157708e+003
 1,876555e+000; 1,158214e+003
 1,877935e+000; 1,158703e+003
 1,879255e+000; 1,159208e+003
 1,880635e+000; 1,159741e+003
 1,881955e+000; 1,160238e+003
 1,883275e+000; 1,160735e+003
 1,884655e+000; 1,161259e+003
 1,886215e+000; 1,161791e+003
 1,887295e+000; 1,162219e+003
 1,889935e+000; 1,163196e+003
 1,891255e+000; 1,163658e+003
 1,892515e+000; 1,164156e+003
 1,893895e+000; 1,164644e+003
 1,895215e+000; 1,165141e+003
 1,896595e+000; 1,165639e+003
 1,898035e+000; 1,166119e+003
 1,899295e+000; 1,166599e+003
 1,900615e+000; 1,167070e+003
 1,901995e+000; 1,167532e+003
 1,903315e+000; 1,168012e+003
 1,904635e+000; 1,168500e+003
 1,906015e+000; 1,168972e+003
 1,907275e+000; 1,169478e+003
 1,908655e+000; 1,169975e+003
 1,909975e+000; 1,170437e+003
 1,911295e+000; 1,170926e+003
 1,912615e+000; 1,171415e+003
 1,913935e+000; 1,171912e+003
 1,915315e+000; 1,172392e+003
 1,918015e+000; 1,173386e+003
 1,919275e+000; 1,173901e+003
 1,920715e+000; 1,174364e+003
 1,922035e+000; 1,174861e+003
 1,923295e+000; 1,175332e+003
 1,924615e+000; 1,175786e+003
 1,925935e+000; 1,176222e+003
 1,927255e+000; 1,176702e+003
 1,928635e+000; 1,177138e+003
 1,929955e+000; 1,177635e+003
 1,931335e+000; 1,178089e+003
 1,932655e+000; 1,178578e+003
 1,933915e+000; 1,179049e+003
 1,935295e+000; 1,179529e+003
 1,936615e+000; 1,180009e+003
 1,937935e+000; 1,180471e+003
 1,939435e+000; 1,181012e+003
 1,940635e+000; 1,181448e+003
 1,943395e+000; 1,182408e+003
 1,944655e+000; 1,182923e+003
 1,945975e+000; 1,183376e+003
 1,947295e+000; 1,183830e+003
 1,948615e+000; 1,184319e+003
 1,949995e+000; 1,184772e+003
 1,951255e+000; 1,185243e+003
 1,952635e+000; 1,185732e+003
 1,954015e+000; 1,186186e+003
 1,955335e+000; 1,186622e+003
 1,956655e+000; 1,187093e+003
 1,958095e+000; 1,187529e+003
 1,959355e+000; 1,187974e+003
 1,960675e+000; 1,188419e+003
 1,961935e+000; 1,188882e+003
 1,963315e+000; 1,189327e+003
 1,964635e+000; 1,189789e+003
 1,965955e+000; 1,190251e+003
 1,967275e+000; 1,190705e+003
 1,968595e+000; 1,191159e+003
 1,971235e+000; 1,192075e+003
 1,972615e+000; 1,192564e+003
 1,973935e+000; 1,193043e+003
 1,975375e+000; 1,193515e+003
 1,976635e+000; 1,193960e+003
 1,978015e+000; 1,194457e+003
 1,979335e+000; 1,194884e+003
 1,980715e+000; 1,195347e+003
 1,981975e+000; 1,195801e+003
 1,983355e+000; 1,196219e+003
 1,984675e+000; 1,196638e+003
 1,985995e+000; 1,197092e+003
 1,987255e+000; 1,197519e+003
 1,988635e+000; 1,197947e+003
 1,989955e+000; 1,198418e+003
 1,991275e+000; 1,198889e+003
 1,992655e+000; 1,199325e+003
 1,993975e+000; 1,199788e+003
 1,995535e+000; 1,200311e+003
 1,996675e+000; 1,200695e+003
 1,997995e+000; 1,201131e+003
 2,000635e+000; 1,202021e+003
 2,001955e+000; 1,202484e+003
 2,003275e+000; 1,202929e+003
 2,004655e+000; 1,203382e+003
 2,005975e+000; 1,203792e+003
 2,007295e+000; 1,204272e+003
 2,008615e+000; 1,204709e+003
 2,009935e+000; 1,205136e+003
 2,011315e+000; 1,205564e+003
 2,012635e+000; 1,206009e+003
 2,014015e+000; 1,206445e+003
 2,015335e+000; 1,206872e+003
 2,016655e+000; 1,207309e+003
 2,017975e+000; 1,207736e+003
 2,019295e+000; 1,208181e+003
 2,020615e+000; 1,208600e+003
 2,021935e+000; 1,209027e+003
 2,023435e+000; 1,209533e+003
 2,024635e+000; 1,209917e+003
 2,027275e+000; 1,210781e+003
 2,028595e+000; 1,211243e+003
 2,029915e+000; 1,211671e+003
 2,031295e+000; 1,212125e+003
 2,032615e+000; 1,212578e+003
 2,034055e+000; 1,213050e+003
 2,035375e+000; 1,213460e+003
 2,036695e+000; 1,213913e+003
 2,037955e+000; 1,214341e+003
 2,039335e+000; 1,214760e+003
 2,040595e+000; 1,215161e+003
 2,041975e+000; 1,215588e+003
 2,043295e+000; 1,215981e+003
 2,044615e+000; 1,216409e+003
 2,046055e+000; 1,216906e+003
 2,047255e+000; 1,217255e+003
 2,049955e+000; 1,218154e+003
 2,051275e+000; 1,218581e+003
 2,052595e+000; 1,219017e+003
 2,053915e+000; 1,219445e+003
 2,055295e+000; 1,219864e+003
 2,056615e+000; 1,220300e+003
 2,057935e+000; 1,220727e+003
 2,059255e+000; 1,221155e+003
 2,060635e+000; 1,221574e+003
 2,061955e+000; 1,222010e+003
 2,063275e+000; 1,222446e+003
 2,064655e+000; 1,222865e+003
 2,065975e+000; 1,223284e+003
 2,067295e+000; 1,223720e+003
 2,068615e+000; 1,224139e+003
 2,069995e+000; 1,224540e+003
 2,071375e+000; 1,224950e+003
 2,072695e+000; 1,225360e+003
 2,073895e+000; 1,225770e+003
 2,075215e+000; 1,226198e+003
 2,076655e+000; 1,226617e+003
 2,079295e+000; 1,227454e+003
 2,080615e+000; 1,227882e+003
 2,081875e+000; 1,228283e+003
 2,083255e+000; 1,228693e+003
 2,084575e+000; 1,229094e+003
 2,085955e+000; 1,229531e+003
 2,087275e+000; 1,229949e+003
 2,088595e+000; 1,230360e+003
 2,089975e+000; 1,230778e+003
 2,091235e+000; 1,231197e+003
 2,092675e+000; 1,231616e+003
 2,093935e+000; 1,232017e+003
 2,095315e+000; 1,232410e+003
 2,096695e+000; 1,232811e+003
 2,097955e+000; 1,233204e+003
 2,099335e+000; 1,233597e+003
 2,100595e+000; 1,233989e+003
 2,101975e+000; 1,234399e+003
 2,103235e+000; 1,234783e+003
 2,104615e+000; 1,235202e+003
 2,105995e+000; 1,235612e+003
 2,108695e+000; 1,236423e+003
 2,109895e+000; 1,236842e+003
 2,111275e+000; 1,237244e+003
 2,112595e+000; 1,237645e+003
 2,113915e+000; 1,238037e+003
 2,115235e+000; 1,238465e+003
 2,116615e+000; 1,238875e+003
 2,117995e+000; 1,239276e+003
 2,119255e+000; 1,239669e+003
 2,120575e+000; 1,240070e+003
 2,121895e+000; 1,240446e+003
 2,123215e+000; 1,240829e+003
 2,124655e+000; 1,241213e+003
 2,126035e+000; 1,241597e+003
 2,127295e+000; 1,241981e+003
 2,128675e+000; 1,242365e+003
 2,129995e+000; 1,242749e+003
 2,131435e+000; 1,243168e+003
 2,132695e+000; 1,243517e+003
 2,133895e+000; 1,243918e+003
 2,136595e+000; 1,244668e+003
 2,137915e+000; 1,245078e+003
 2,139295e+000; 1,245471e+003
 2,140615e+000; 1,245855e+003
 2,141995e+000; 1,246265e+003
 2,143315e+000; 1,246666e+003
 2,144635e+000; 1,247068e+003
 2,146015e+000; 1,247469e+003
 2,147335e+000; 1,247844e+003
 2,148655e+000; 1,248219e+003
 2,149915e+000; 1,248612e+003
 2,151235e+000; 1,248978e+003
 2,152615e+000; 1,249362e+003
 2,153935e+000; 1,249755e+003
 2,155315e+000; 1,250130e+003
 2,156575e+000; 1,250496e+003
 2,157955e+000; 1,250889e+003
 2,159455e+000; 1,251299e+003
 2,160655e+000; 1,251622e+003
 2,163295e+000; 1,252416e+003
 2,164615e+000; 1,252800e+003
 2,165935e+000; 1,253219e+003
 2,167375e+000; 1,253620e+003
 2,168635e+000; 1,254004e+003
 2,169955e+000; 1,254414e+003
 2,171335e+000; 1,254789e+003
 2,172655e+000; 1,255156e+003
 2,173915e+000; 1,255539e+003
 2,175295e+000; 1,255932e+003
 2,176615e+000; 1,256307e+003
 2,177935e+000; 1,256700e+003
 2,179315e+000; 1,257093e+003
 2,180635e+000; 1,257468e+003
 2,182015e+000; 1,257860e+003
 2,183335e+000; 1,258218e+003
 2,184715e+000; 1,258584e+003
 2,185975e+000; 1,258942e+003
 2,187295e+000; 1,259309e+003
 2,188555e+000; 1,259658e+003
 2,191315e+000; 1,260408e+003
 2,192575e+000; 1,260783e+003
 2,193955e+000; 1,261158e+003
 2,195215e+000; 1,261542e+003
 2,196475e+000; 1,261926e+003
 2,197915e+000; 1,262301e+003
 2,199235e+000; 1,262685e+003
 2,200615e+000; 1,263086e+003
 2,201995e+000; 1,263479e+003
 2,203315e+000; 1,263872e+003
 2,204755e+000; 1,264264e+003
 2,206075e+000; 1,264648e+003
 2,207335e+000; 1,264997e+003
 2,208655e+000; 1,265355e+003
 2,209975e+000; 1,265713e+003
 2,211355e+000; 1,266044e+003
 2,212615e+000; 1,266402e+003
 2,213935e+000; 1,266742e+003
 2,215375e+000; 1,267100e+003
 2,217955e+000; 1,267842e+003
 2,219335e+000; 1,268190e+003
 2,220655e+000; 1,268566e+003
 2,221975e+000; 1,268923e+003
 2,223295e+000; 1,269264e+003
 2,224675e+000; 1,269621e+003
 2,225935e+000; 1,270014e+003
 2,227315e+000; 1,270380e+003
 2,228695e+000; 1,270747e+003
 2,229955e+000; 1,271113e+003
 2,231335e+000; 1,271471e+003
 2,232715e+000; 1,271811e+003
 2,233915e+000; 1,272160e+003
 2,235295e+000; 1,272535e+003
 2,236615e+000; 1,272893e+003
 2,237995e+000; 1,273268e+003
 2,239375e+000; 1,273609e+003
 2,240695e+000; 1,273975e+003
 2,242195e+000; 1,274333e+003
 2,243335e+000; 1,274629e+003
 2,244655e+000; 1,274952e+003
 2,247295e+000; 1,275624e+003
 2,248615e+000; 1,275973e+003
 2,249935e+000; 1,276331e+003
 2,251315e+000; 1,276715e+003
 2,252635e+000; 1,277072e+003
 2,253955e+000; 1,277439e+003
 2,255275e+000; 1,277788e+003
 2,256715e+000; 1,278146e+003
 2,257975e+000; 1,278460e+003
 2,259355e+000; 1,278809e+003
 2,260555e+000; 1,279149e+003
 2,261995e+000; 1,279507e+003
 2,263315e+000; 1,279856e+003
 2,264635e+000; 1,280205e+003
 2,265955e+000; 1,280545e+003
 2,267275e+000; 1,280876e+003
 2,268655e+000; 1,281199e+003
 2,269915e+000; 1,281513e+003
 2,271475e+000; 1,281888e+003
 2,272615e+000; 1,282168e+003
 2,273995e+000; 1,282508e+003
 2,276635e+000; 1,283188e+003
 2,277955e+000; 1,283546e+003
 2,279275e+000; 1,283913e+003
 2,280715e+000; 1,284235e+003
 2,281975e+000; 1,284541e+003
 2,283295e+000; 1,284881e+003
 2,284555e+000; 1,285187e+003
 2,285935e+000; 1,285509e+003
 2,287255e+000; 1,285858e+003
 2,288575e+000; 1,286216e+003
 2,289955e+000; 1,286582e+003
 2,291335e+000; 1,286931e+003
 2,292655e+000; 1,287280e+003
 2,294035e+000; 1,287612e+003
 2,295295e+000; 1,287952e+003
 2,296675e+000; 1,288258e+003
 2,297995e+000; 1,288580e+003
 2,299495e+000; 1,288938e+003
 2,300635e+000; 1,289191e+003
 2,303275e+000; 1,289819e+003
 2,304595e+000; 1,290133e+003
 2,305915e+000; 1,290439e+003
 2,307235e+000; 1,290797e+003
 2,308555e+000; 1,291102e+003
 2,309935e+000; 1,291425e+003
 2,311255e+000; 1,291782e+003
 2,312635e+000; 1,292105e+003
 2,314015e+000; 1,292437e+003
 2,315335e+000; 1,292795e+003
 2,316715e+000; 1,293152e+003
 2,317975e+000; 1,293440e+003
 2,319355e+000; 1,293798e+003
 2,320615e+000; 1,294112e+003
 2,321935e+000; 1,294409e+003
 2,323315e+000; 1,294714e+003
 2,324575e+000; 1,295028e+003
 2,325955e+000; 1,295333e+003
 2,327455e+000; 1,295648e+003
 2,328595e+000; 1,295927e+003
 2,329975e+000; 1,296241e+003
 2,332675e+000; 1,296878e+003
 2,333995e+000; 1,297201e+003
 2,335315e+000; 1,297506e+003
 2,336575e+000; 1,297829e+003
 2,337835e+000; 1,298152e+003
 2,339275e+000; 1,298448e+003
 2,340655e+000; 1,298788e+003
 2,341975e+000; 1,299120e+003
 2,343295e+000; 1,299425e+003
 2,344615e+000; 1,299748e+003
 2,345935e+000; 1,300062e+003
 2,347255e+000; 1,300376e+003
 2,348635e+000; 1,300673e+003
 2,349955e+000; 1,301013e+003
 2,351275e+000; 1,301336e+003
 2,352715e+000; 1,301624e+003
 2,354035e+000; 1,301921e+003
 2,355355e+000; 1,302217e+003
 2,356795e+000; 1,302531e+003
 2,357995e+000; 1,302741e+003
 2,360575e+000; 1,303325e+003
 2,362015e+000; 1,303613e+003
 2,363275e+000; 1,303919e+003
 2,364595e+000; 1,304215e+003
 2,365915e+000; 1,304503e+003
 2,367295e+000; 1,304835e+003
 2,368615e+000; 1,305149e+003
 2,369995e+000; 1,305446e+003
 2,371315e+000; 1,305760e+003
 2,372635e+000; 1,306056e+003
 2,373835e+000; 1,306335e+003
 2,375275e+000; 1,306623e+003
 2,376715e+000; 1,306946e+003
 2,377975e+000; 1,307225e+003
 2,379355e+000; 1,307522e+003
 2,380615e+000; 1,307819e+003
 2,381995e+000; 1,308115e+003
 2,383315e+000; 1,308368e+003
 2,384755e+000; 1,308709e+003
 2,385955e+000; 1,308970e+003
 2,388595e+000; 1,309555e+003
 2,389975e+000; 1,309843e+003
 2,391355e+000; 1,310122e+003
 2,392555e+000; 1,310419e+003
 2,393935e+000; 1,310707e+003
 2,395255e+000; 1,310986e+003
 2,396575e+000; 1,311300e+003
 2,397895e+000; 1,311597e+003
 2,399215e+000; 1,311876e+003
 2,400535e+000; 1,312172e+003
 2,401915e+000; 1,312486e+003
 2,403295e+000; 1,312801e+003
 2,404615e+000; 1,313106e+003
 2,405995e+000; 1,313420e+003
 2,407375e+000; 1,313708e+003
 2,408695e+000; 1,313987e+003
 2,410015e+000; 1,314249e+003
 2,411455e+000; 1,314563e+003
 2,412655e+000; 1,314799e+003
 2,413975e+000; 1,315069e+003
 2,416555e+000; 1,315627e+003
 2,417935e+000; 1,315898e+003
 2,419255e+000; 1,316177e+003
 2,420575e+000; 1,316465e+003
 2,421895e+000; 1,316762e+003
 2,423215e+000; 1,317058e+003
 2,424655e+000; 1,317355e+003
 2,425975e+000; 1,317643e+003
 2,427355e+000; 1,317948e+003
 2,428615e+000; 1,318236e+003
 2,429995e+000; 1,318507e+003
 2,431315e+000; 1,318786e+003
 2,432635e+000; 1,319074e+003
 2,433955e+000; 1,319344e+003
 2,435275e+000; 1,319623e+003
 2,436655e+000; 1,319911e+003
 2,437915e+000; 1,320191e+003
 2,439295e+000; 1,320470e+003
 2,440615e+000; 1,320749e+003
 2,441995e+000; 1,321028e+003
 2,444695e+000; 1,321569e+003
 2,446075e+000; 1,321848e+003
 2,447275e+000; 1,322101e+003
 2,448595e+000; 1,322346e+003
 2,449915e+000; 1,322616e+003
 2,451175e+000; 1,322878e+003
 2,452555e+000; 1,323131e+003
 2,453935e+000; 1,323419e+003
 2,455315e+000; 1,323698e+003
 2,456635e+000; 1,323960e+003
 2,457895e+000; 1,324230e+003
 2,459215e+000; 1,324501e+003
 2,460595e+000; 1,324771e+003
 2,461915e+000; 1,325042e+003
 2,463295e+000; 1,325329e+003
 2,464615e+000; 1,325591e+003
 2,465995e+000; 1,325879e+003
 2,467495e+000; 1,326167e+003
 2,468695e+000; 1,326394e+003
 2,471335e+000; 1,326891e+003
 2,472715e+000; 1,327127e+003
 2,473975e+000; 1,327345e+003
 2,475355e+000; 1,327607e+003
 2,476495e+000; 1,327851e+003
 2,477875e+000; 1,328104e+003
 2,479255e+000; 1,328366e+003
 2,480635e+000; 1,328654e+003
 2,481955e+000; 1,328898e+003
 2,483395e+000; 1,329168e+003
 2,484715e+000; 1,329439e+003
 2,485975e+000; 1,329701e+003
 2,487295e+000; 1,329945e+003
 2,488615e+000; 1,330207e+003
 2,489935e+000; 1,330451e+003
 2,491255e+000; 1,330678e+003
 2,492515e+000; 1,330913e+003
 2,493895e+000; 1,331166e+003
 2,495395e+000; 1,331446e+003
 2,496595e+000; 1,331672e+003
 2,497975e+000; 1,331952e+003
 2,500675e+000; 1,332458e+003
 2,501995e+000; 1,332702e+003
 2,503375e+000; 1,332946e+003
 2,504695e+000; 1,333208e+003
 2,506075e+000; 1,333444e+003
 2,507335e+000; 1,333697e+003
 2,508655e+000; 1,333923e+003
 2,509975e+000; 1,334176e+003
 2,511295e+000; 1,334412e+003
 2,512615e+000; 1,334674e+003
 2,513995e+000; 1,334927e+003
 2,515315e+000; 1,335171e+003
 2,516635e+000; 1,335424e+003
 2,518015e+000; 1,335668e+003
 2,519275e+000; 1,335904e+003
 2,520655e+000; 1,336140e+003
 2,522035e+000; 1,336410e+003
 2,523355e+000; 1,336628e+003
 2,524795e+000; 1,336864e+003
 2,525935e+000; 1,337064e+003
 2,527255e+000; 1,337282e+003
 2,529955e+000; 1,337727e+003
 2,531275e+000; 1,337963e+003
 2,532595e+000; 1,338216e+003
 2,533975e+000; 1,338460e+003
 2,535295e+000; 1,338713e+003
 2,536615e+000; 1,338966e+003
 2,537995e+000; 1,339211e+003
 2,539255e+000; 1,339446e+003
 2,540635e+000; 1,339708e+003
 2,541955e+000; 1,339952e+003
 2,543335e+000; 1,340179e+003
 2,544715e+000; 1,340423e+003
 2,545975e+000; 1,340659e+003
 2,547295e+000; 1,340886e+003
 2,548615e+000; 1,341087e+003
 2,549935e+000; 1,341313e+003
 2,551255e+000; 1,341540e+003
 2,552875e+000; 1,341811e+003
 2,554015e+000; 1,341968e+003
 2,556715e+000; 1,342448e+003
 2,558035e+000; 1,342640e+003
 2,559355e+000; 1,342858e+003
 2,560615e+000; 1,343076e+003
 2,561935e+000; 1,343294e+003
 2,563255e+000; 1,343495e+003
 2,564635e+000; 1,343730e+003
 2,565955e+000; 1,343948e+003
 2,567275e+000; 1,344184e+003
 2,568595e+000; 1,344402e+003
 2,569915e+000; 1,344629e+003
 2,571235e+000; 1,344847e+003
 2,572675e+000; 1,345091e+003
 2,573935e+000; 1,345327e+003
 2,575375e+000; 1,345554e+003
 2,576695e+000; 1,345789e+003
 2,578195e+000; 1,346060e+003
 2,579275e+000; 1,346225e+003
 2,580715e+000; 1,346426e+003
 2,583295e+000; 1,346819e+003
 2,584675e+000; 1,347019e+003
 2,585995e+000; 1,347211e+003
 2,587315e+000; 1,347403e+003
 2,588635e+000; 1,347613e+003
 2,589895e+000; 1,347840e+003
 2,591275e+000; 1,348031e+003
 2,592595e+000; 1,348241e+003
 2,593975e+000; 1,348468e+003
 2,595295e+000; 1,348686e+003
 2,596615e+000; 1,348878e+003
 2,597995e+000; 1,349096e+003
 2,599255e+000; 1,349323e+003
 2,600635e+000; 1,349523e+003
 2,602015e+000; 1,349724e+003
 2,603335e+000; 1,349942e+003
 2,604655e+000; 1,350152e+003
 2,605975e+000; 1,350326e+003
 2,607415e+000; 1,350544e+003
 2,608555e+000; 1,350727e+003
 2,609935e+000; 1,350902e+003
 2,612635e+000; 1,351295e+003
 2,614015e+000; 1,351487e+003
 2,615335e+000; 1,351678e+003
 2,616715e+000; 1,351888e+003
 2,617975e+000; 1,352071e+003
 2,619295e+000; 1,352281e+003
 2,620615e+000; 1,352464e+003
 2,621935e+000; 1,352656e+003
 2,623315e+000; 1,352856e+003
 2,624575e+000; 1,353040e+003
 2,625895e+000; 1,353231e+003
 2,627275e+000; 1,353441e+003
 2,628595e+000; 1,353642e+003
 2,629915e+000; 1,353833e+003
 2,631295e+000; 1,354052e+003
 2,632615e+000; 1,354270e+003
 2,633995e+000; 1,354462e+003
 2,635555e+000; 1,354671e+003
 2,636635e+000; 1,354863e+003
 2,637955e+000; 1,355064e+003
 2,640655e+000; 1,355421e+003
 2,641975e+000; 1,355605e+003
 2,643295e+000; 1,355770e+003
 2,644615e+000; 1,355936e+003
 2,645875e+000; 1,356154e+003
 2,647255e+000; 1,356346e+003
 2,648635e+000; 1,356556e+003
 2,650015e+000; 1,356782e+003
 2,651275e+000; 1,357001e+003
 2,652595e+000; 1,357184e+003
 2,653975e+000; 1,357393e+003
 2,655295e+000; 1,357594e+003
 2,656675e+000; 1,357777e+003
 2,657995e+000; 1,357987e+003
 2,659315e+000; 1,358196e+003
 2,660635e+000; 1,358388e+003
 2,661955e+000; 1,358554e+003
 2,663275e+000; 1,358746e+003
 2,664535e+000; 1,358920e+003
 2,665975e+000; 1,359112e+003
 2,667295e+000; 1,359313e+003
 2,670055e+000; 1,359697e+003
 2,671375e+000; 1,359862e+003
 2,672695e+000; 1,360046e+003
 2,673895e+000; 1,360194e+003
 2,675275e+000; 1,360386e+003
 2,676595e+000; 1,360552e+003
 2,677975e+000; 1,360752e+003
 2,679295e+000; 1,360918e+003
 2,680615e+000; 1,361110e+003
 2,681935e+000; 1,361276e+003
 2,683255e+000; 1,361468e+003
 2,684635e+000; 1,361634e+003
 2,685895e+000; 1,361825e+003
 2,687275e+000; 1,362009e+003
 2,688715e+000; 1,362209e+003
 2,689975e+000; 1,362375e+003
 2,691295e+000; 1,362558e+003
 2,692795e+000; 1,362742e+003
 2,693935e+000; 1,362881e+003
 2,696635e+000; 1,363213e+003
 2,698015e+000; 1,363352e+003
 2,699275e+000; 1,363536e+003
 2,700595e+000; 1,363684e+003
 2,701975e+000; 1,363832e+003
 2,703295e+000; 1,363998e+003
 2,704615e+000; 1,364190e+003
 2,705935e+000; 1,364347e+003
 2,707315e+000; 1,364504e+003
 2,708635e+000; 1,364678e+003
 2,709955e+000; 1,364836e+003
 2,711215e+000; 1,365001e+003
 2,712595e+000; 1,365158e+003
 2,713915e+000; 1,365350e+003
 2,715235e+000; 1,365525e+003
 2,716615e+000; 1,365708e+003
 2,717935e+000; 1,365874e+003
 2,719255e+000; 1,366048e+003
 2,720755e+000; 1,366205e+003
 2,721895e+000; 1,366336e+003
 2,724655e+000; 1,366659e+003
 2,725975e+000; 1,366799e+003
 2,727295e+000; 1,366947e+003
 2,728615e+000; 1,367087e+003
 2,729935e+000; 1,367235e+003
 2,731375e+000; 1,367366e+003
 2,732635e+000; 1,367531e+003
 2,734015e+000; 1,367680e+003
 2,735275e+000; 1,367828e+003
 2,736595e+000; 1,367968e+003
 2,737915e+000; 1,368125e+003
 2,739175e+000; 1,368273e+003
 2,740555e+000; 1,368465e+003
 2,741995e+000; 1,368605e+003
 2,743375e+000; 1,368788e+003
 2,744635e+000; 1,368936e+003
 2,746015e+000; 1,369093e+003
 2,747395e+000; 1,369215e+003
 2,748835e+000; 1,369399e+003
 2,749975e+000; 1,369521e+003
 2,752615e+000; 1,369817e+003
 2,753995e+000; 1,369957e+003
 2,755315e+000; 1,370079e+003
 2,756635e+000; 1,370210e+003
 2,757955e+000; 1,370350e+003
 2,759215e+000; 1,370480e+003
 2,760595e+000; 1,370629e+003
 2,761915e+000; 1,370760e+003
 2,763295e+000; 1,370934e+003
 2,764615e+000; 1,371091e+003
 2,765935e+000; 1,371240e+003
 2,767375e+000; 1,371397e+003
 2,768695e+000; 1,371562e+003
 2,769955e+000; 1,371693e+003
 2,771275e+000; 1,371850e+003
 2,772655e+000; 1,371999e+003
 2,773915e+000; 1,372121e+003
 2,775355e+000; 1,372269e+003
 2,776795e+000; 1,372444e+003
 2,777935e+000; 1,372540e+003
 2,780635e+000; 1,372845e+003
 2,781955e+000; 1,372958e+003
 2,783275e+000; 1,373089e+003
 2,784715e+000; 1,373246e+003
 2,785975e+000; 1,373351e+003
 2,787295e+000; 1,373438e+003
 2,788615e+000; 1,373587e+003
 2,789875e+000; 1,373700e+003
 2,791255e+000; 1,373813e+003
 2,792635e+000; 1,373944e+003
 2,793895e+000; 1,374084e+003
 2,795155e+000; 1,374232e+003
 2,796595e+000; 1,374372e+003
 2,797975e+000; 1,374520e+003
 2,799295e+000; 1,374660e+003
 2,800615e+000; 1,374817e+003
 2,801995e+000; 1,374939e+003
 2,803495e+000; 1,375096e+003
 2,804755e+000; 1,375192e+003
 2,806015e+000; 1,375332e+003
 2,808655e+000; 1,375558e+003
 2,809975e+000; 1,375672e+003
 2,811355e+000; 1,375768e+003
 2,812675e+000; 1,375881e+003
 2,813935e+000; 1,375986e+003
 2,815315e+000; 1,376134e+003
 2,816635e+000; 1,376239e+003
 2,818015e+000; 1,376370e+003
 2,819335e+000; 1,376501e+003
 2,820655e+000; 1,376623e+003
 2,821975e+000; 1,376710e+003
 2,823295e+000; 1,376841e+003
 2,824555e+000; 1,376963e+003
 2,825935e+000; 1,377068e+003
 2,827255e+000; 1,377164e+003
 2,828635e+000; 1,377312e+003
 2,829955e+000; 1,377425e+003
 2,831515e+000; 1,377565e+003
 2,832595e+000; 1,377652e+003
 2,835235e+000; 1,377897e+003
 2,836615e+000; 1,377993e+003
 2,837935e+000; 1,378123e+003
 2,839375e+000; 1,378246e+003
 2,840695e+000; 1,378359e+003
 2,842075e+000; 1,378438e+003
 2,843335e+000; 1,378551e+003
 2,844655e+000; 1,378647e+003
 2,845915e+000; 1,378734e+003
 2,847295e+000; 1,378821e+003
 2,848615e+000; 1,378944e+003
 2,849935e+000; 1,379048e+003
 2,851255e+000; 1,379144e+003
 2,852575e+000; 1,379258e+003
 2,853895e+000; 1,379371e+003
 2,855215e+000; 1,379484e+003
 2,856655e+000; 1,379607e+003
 2,858035e+000; 1,379703e+003
 2,859475e+000; 1,379833e+003
 2,860615e+000; 1,379921e+003
 2,863255e+000; 1,380095e+003
 2,864635e+000; 1,380209e+003
 2,865955e+000; 1,380305e+003
 2,867275e+000; 1,380383e+003
 2,868655e+000; 1,380470e+003
 2,869915e+000; 1,380575e+003
 2,871235e+000; 1,380662e+003
 2,872615e+000; 1,380750e+003
 2,873935e+000; 1,380880e+003
 2,875315e+000; 1,380985e+003
 2,876695e+000; 1,381099e+003
 2,877955e+000; 1,381186e+003
 2,879335e+000; 1,381317e+003
 2,880655e+000; 1,381395e+003
 2,881975e+000; 1,381509e+003
 2,883355e+000; 1,381596e+003
 2,884615e+000; 1,381709e+003
 2,885995e+000; 1,381797e+003
 2,887495e+000; 1,381884e+003
 2,888575e+000; 1,381962e+003
 2,891275e+000; 1,382172e+003
 2,892655e+000; 1,382250e+003
 2,894035e+000; 1,382364e+003
 2,895355e+000; 1,382460e+003
 2,896735e+000; 1,382547e+003
 2,897995e+000; 1,382608e+003
 2,899315e+000; 1,382687e+003
 2,900635e+000; 1,382765e+003
 2,901955e+000; 1,382835e+003
 2,903275e+000; 1,382922e+003
 2,904595e+000; 1,383009e+003
 2,905915e+000; 1,383097e+003
 2,907235e+000; 1,383166e+003
 2,908555e+000; 1,383254e+003
 2,909935e+000; 1,383350e+003
 2,911255e+000; 1,383428e+003
 2,912695e+000; 1,383515e+003
 2,914195e+000; 1,383620e+003
 2,915335e+000; 1,383707e+003
 2,918035e+000; 1,383873e+003
 2,919355e+000; 1,383943e+003
 2,920615e+000; 1,384013e+003
 2,921935e+000; 1,384074e+003
 2,923315e+000; 1,384135e+003
 2,924635e+000; 1,384196e+003
 2,925895e+000; 1,384266e+003
 2,927215e+000; 1,384327e+003
 2,928655e+000; 1,384414e+003
 2,929975e+000; 1,384484e+003
 2,931295e+000; 1,384554e+003
 2,932615e+000; 1,384623e+003
 2,933995e+000; 1,384702e+003
 2,935255e+000; 1,384754e+003
 2,936575e+000; 1,384824e+003
 2,937895e+000; 1,384894e+003
 2,939215e+000; 1,384972e+003
 2,940595e+000; 1,385034e+003
 2,942155e+000; 1,385130e+003
 2,943235e+000; 1,385173e+003
 2,945935e+000; 1,385321e+003
 2,947315e+000; 1,385409e+003
 2,948635e+000; 1,385479e+003
 2,950015e+000; 1,385548e+003
 2,951335e+000; 1,385609e+003
 2,952715e+000; 1,385670e+003
 2,954035e+000; 1,385714e+003
 2,955355e+000; 1,385775e+003
 2,956675e+000; 1,385828e+003
 2,957935e+000; 1,385871e+003
 2,959315e+000; 1,385915e+003
 2,960575e+000; 1,385967e+003
 2,961895e+000; 1,386002e+003
 2,963275e+000; 1,386054e+003
 2,964535e+000; 1,386107e+003
 2,965855e+000; 1,386159e+003
 2,967235e+000; 1,386220e+003
 2,968555e+000; 1,386264e+003
 2,969995e+000; 1,386333e+003
 2,972695e+000; 1,386438e+003
 2,973895e+000; 1,386491e+003
 2,975215e+000; 1,386526e+003
 2,976595e+000; 1,386560e+003
 2,977915e+000; 1,386621e+003
 2,979295e+000; 1,386665e+003
 2,980675e+000; 1,386700e+003
 2,981995e+000; 1,386761e+003
 2,983255e+000; 1,386787e+003
 2,984635e+000; 1,386805e+003
 2,985955e+000; 1,386857e+003
 2,987335e+000; 1,386892e+003
 2,988655e+000; 1,386953e+003
 2,989975e+000; 1,387005e+003
 2,991295e+000; 1,387031e+003
 2,992615e+000; 1,387075e+003
 2,993875e+000; 1,387110e+003
 2,995255e+000; 1,387154e+003
 2,996575e+000; 1,387171e+003
 2,999275e+000; 1,387232e+003
 3,000595e+000; 1,387285e+003
 3,001915e+000; 1,387293e+003
 3,003295e+000; 1,387372e+003
 3,004615e+000; 1,387442e+003
 3,005995e+000; 1,387485e+003
 3,007375e+000; 1,387503e+003
 3,008695e+000; 1,387546e+003
 3,009955e+000; 1,387538e+003
 3,011275e+000; 1,387555e+003
 3,012655e+000; 1,387564e+003
 3,014035e+000; 1,387581e+003
 3,015295e+000; 1,387607e+003
 3,016615e+000; 1,387634e+003
 3,017935e+000; 1,387651e+003
 3,019255e+000; 1,387660e+003
 3,020515e+000; 1,387677e+003
 3,021895e+000; 1,387686e+003
 3,023395e+000; 1,387721e+003
 3,024595e+000; 1,387738e+003
 3,025975e+000; 1,387764e+003
 3,028555e+000; 1,387817e+003
 3,029935e+000; 1,387834e+003
 3,031315e+000; 1,387860e+003
 3,032575e+000; 1,387878e+003
 3,033955e+000; 1,387904e+003
 3,035335e+000; 1,387939e+003
 3,036655e+000; 1,387948e+003
 3,037975e+000; 1,387974e+003
 3,039295e+000; 1,388000e+003
 3,040675e+000; 1,388000e+003
 3,041935e+000; 1,388026e+003
 3,043375e+000; 1,388052e+003
 3,044635e+000; 1,388070e+003
 3,045955e+000; 1,388105e+003
 3,047275e+000; 1,388148e+003
 3,048595e+000; 1,388157e+003
 3,049915e+000; 1,388192e+003
 3,051235e+000; 1,388227e+003
 3,052735e+000; 1,388253e+003
 3,053875e+000; 1,388279e+003
 3,056635e+000; 1,388332e+003
 3,057895e+000; 1,388340e+003
 3,059215e+000; 1,388384e+003
 3,060655e+000; 1,388419e+003
 3,061915e+000; 1,388436e+003
 3,063295e+000; 1,388471e+003
 3,064615e+000; 1,388523e+003
 3,065995e+000; 1,388523e+003
 3,067315e+000; 1,388532e+003
 3,068695e+000; 1,388550e+003
 3,070015e+000; 1,388567e+003
 3,071335e+000; 1,388550e+003
 3,072655e+000; 1,388558e+003
 3,073975e+000; 1,388558e+003
 3,075235e+000; 1,388541e+003
 3,076615e+000; 1,388550e+003
 3,078115e+000; 1,388567e+003
 3,079315e+000; 1,388585e+003
 3,080695e+000; 1,388593e+003
 3,081955e+000; 1,388602e+003
 3,084655e+000; 1,388593e+003
 3,085975e+000; 1,388602e+003
 3,087295e+000; 1,388602e+003
 3,088615e+000; 1,388619e+003
 3,089935e+000; 1,388619e+003
 3,091255e+000; 1,388585e+003
 3,092635e+000; 1,388602e+003
 3,093955e+000; 1,388593e+003
 3,095275e+000; 1,388585e+003
 3,096595e+000; 1,388558e+003
 3,097975e+000; 1,388585e+003
 3,099295e+000; 1,388550e+003
 3,100675e+000; 1,388532e+003
 3,101935e+000; 1,388515e+003
 3,103255e+000; 1,388532e+003
 3,104695e+000; 1,388506e+003
 3,105955e+000; 1,388515e+003
 3,107275e+000; 1,388497e+003
 3,108595e+000; 1,388497e+003
 3,110095e+000; 1,388489e+003
 3,111295e+000; 1,388489e+003
 3,112555e+000; 1,388480e+003
 3,115315e+000; 1,388506e+003
 3,116635e+000; 1,388506e+003
 3,118015e+000; 1,388515e+003
 3,119335e+000; 1,388515e+003
 3,120715e+000; 1,388506e+003
 3,122095e+000; 1,388471e+003
 3,123295e+000; 1,388462e+003
 3,124615e+000; 1,388445e+003
 3,125935e+000; 1,388427e+003
 3,127315e+000; 1,388419e+003
 3,128635e+000; 1,388401e+003
 3,129955e+000; 1,388393e+003
 3,131275e+000; 1,388366e+003
 3,132535e+000; 1,388340e+003
 3,133915e+000; 1,388305e+003
 3,135235e+000; 1,388305e+003
 3,136615e+000; 1,388288e+003
 3,137935e+000; 1,388253e+003
 3,139315e+000; 1,388253e+003
 3,140635e+000; 1,388253e+003
 3,141955e+000; 1,388227e+003
 3,143455e+000; 1,388218e+003
 3,144655e+000; 1,388201e+003
 3,145975e+000; 1,388166e+003
 3,148615e+000; 1,388131e+003
 3,149995e+000; 1,388122e+003
 3,151255e+000; 1,388105e+003
 3,152695e+000; 1,388070e+003
 3,154015e+000; 1,388035e+003
 3,155335e+000; 1,388026e+003
 3,156715e+000; 1,387974e+003
 3,157975e+000; 1,387930e+003
 3,159355e+000; 1,387887e+003
 3,160615e+000; 1,387852e+003
 3,161935e+000; 1,387791e+003
 3,163255e+000; 1,387747e+003
 3,164635e+000; 1,387721e+003
 3,165895e+000; 1,387677e+003
 3,167215e+000; 1,387642e+003
 3,168535e+000; 1,387607e+003
 3,169915e+000; 1,387581e+003
 3,171235e+000; 1,387538e+003
 3,172615e+000; 1,387520e+003
 3,173935e+000; 1,387476e+003
 3,175315e+000; 1,387450e+003
 3,176815e+000; 1,387407e+003
 3,178015e+000; 1,387372e+003
 3,179275e+000; 1,387346e+003
 3,180715e+000; 1,387311e+003
 3,182095e+000; 1,387267e+003
 3,183355e+000; 1,387232e+003
 3,185935e+000; 1,387145e+003
 3,187375e+000; 1,387093e+003
 3,188575e+000; 1,387058e+003
 3,189955e+000; 1,387031e+003
 3,191275e+000; 1,386953e+003
 3,192595e+000; 1,386892e+003
 3,193975e+000; 1,386857e+003
 3,195355e+000; 1,386796e+003
 3,196675e+000; 1,386735e+003
 3,197935e+000; 1,386691e+003
 3,199255e+000; 1,386639e+003
 3,200635e+000; 1,386587e+003
 3,201895e+000; 1,386526e+003
 3,203275e+000; 1,386473e+003
 3,204655e+000; 1,386412e+003
 3,205975e+000; 1,386360e+003
 3,207295e+000; 1,386307e+003
 3,208735e+000; 1,386220e+003
 3,209935e+000; 1,386185e+003
 3,211315e+000; 1,386133e+003
 3,214015e+000; 1,385967e+003
 3,215275e+000; 1,385906e+003
 3,216655e+000; 1,385845e+003
 3,217975e+000; 1,385784e+003
 3,219295e+000; 1,385723e+003
 3,220615e+000; 1,385662e+003
 3,221995e+000; 1,385574e+003
 3,223315e+000; 1,385496e+003
 3,224575e+000; 1,385400e+003
 3,225955e+000; 1,385321e+003
 3,227275e+000; 1,385225e+003
 3,228595e+000; 1,385182e+003
 3,229975e+000; 1,385112e+003
 3,231295e+000; 1,385042e+003
 3,232615e+000; 1,384990e+003
 3,233995e+000; 1,384929e+003
 3,235375e+000; 1,384833e+003
 3,236815e+000; 1,384728e+003
 3,237955e+000; 1,384667e+003
 3,239275e+000; 1,384554e+003
 3,242035e+000; 1,384362e+003
 3,243295e+000; 1,384257e+003
 3,244555e+000; 1,384144e+003
 3,245935e+000; 1,384074e+003
 3,247315e+000; 1,383995e+003
 3,248635e+000; 1,383891e+003
 3,249955e+000; 1,383786e+003
 3,251275e+000; 1,383725e+003
 3,252655e+000; 1,383603e+003
 3,253975e+000; 1,383498e+003
 3,255355e+000; 1,383411e+003
 3,256615e+000; 1,383350e+003
 3,257995e+000; 1,383228e+003
 3,259315e+000; 1,383131e+003
 3,260695e+000; 1,383036e+003
 3,261955e+000; 1,382922e+003
 3,263215e+000; 1,382809e+003
 3,264655e+000; 1,382713e+003
 3,266155e+000; 1,382564e+003
 3,267355e+000; 1,382495e+003
 3,269995e+000; 1,382259e+003
 3,271435e+000; 1,382119e+003
 3,272695e+000; 1,381989e+003
 3,273955e+000; 1,381823e+003
 3,275215e+000; 1,381692e+003
 3,276595e+000; 1,381535e+003
 3,277915e+000; 1,381404e+003
 3,279295e+000; 1,381247e+003
 3,280555e+000; 1,381125e+003
 3,281875e+000; 1,380968e+003
 3,283315e+000; 1,380837e+003
 3,284575e+000; 1,380680e+003
 3,285955e+000; 1,380566e+003
 3,287275e+000; 1,380409e+003
 3,288655e+000; 1,380261e+003
 3,289975e+000; 1,380113e+003
 3,291295e+000; 1,379982e+003
 3,292675e+000; 1,379790e+003
 3,293995e+000; 1,379650e+003
 3,295375e+000; 1,379467e+003
 3,297955e+000; 1,379092e+003
 3,299275e+000; 1,378917e+003
 3,300595e+000; 1,378725e+003
 3,301915e+000; 1,378560e+003
 3,303295e+000; 1,378359e+003
 3,304615e+000; 1,378176e+003
 3,305935e+000; 1,378001e+003
 3,307255e+000; 1,377801e+003
 3,308635e+000; 1,377609e+003
 3,309955e+000; 1,377417e+003
 3,311155e+000; 1,377234e+003
 3,312535e+000; 1,377024e+003
 3,313915e+000; 1,376823e+003
 3,315295e+000; 1,376640e+003
 3,316615e+000; 1,376448e+003
 3,317935e+000; 1,376230e+003
 3,319315e+000; 1,376038e+003
 3,320755e+000; 1,375803e+003
 3,321955e+000; 1,375619e+003
 3,323335e+000; 1,375375e+003
 3,325975e+000; 1,374904e+003
 3,327355e+000; 1,374651e+003
 3,328675e+000; 1,374372e+003
 3,329995e+000; 1,374127e+003
 3,331315e+000; 1,373857e+003
 3,332635e+000; 1,373595e+003
 3,333895e+000; 1,373325e+003
 3,335275e+000; 1,373072e+003
 3,336595e+000; 1,372801e+003
 3,337915e+000; 1,372522e+003
 3,339235e+000; 1,372252e+003
 3,340615e+000; 1,371972e+003
 3,341995e+000; 1,371728e+003
 3,343375e+000; 1,371440e+003
 3,344635e+000; 1,371161e+003
 3,346015e+000; 1,370873e+003
 3,347515e+000; 1,370515e+003
 3,348655e+000; 1,370210e+003
 3,351295e+000; 1,369556e+003
 3,352615e+000; 1,369215e+003
 3,353935e+000; 1,368866e+003
 3,355315e+000; 1,368526e+003
 3,356635e+000; 1,368186e+003
 3,357895e+000; 1,367837e+003
 3,359275e+000; 1,367479e+003
 3,360595e+000; 1,367113e+003
 3,361975e+000; 1,366755e+003
 3,363295e+000; 1,366371e+003
 3,364615e+000; 1,365987e+003
 3,365995e+000; 1,365586e+003
 3,367375e+000; 1,365185e+003
 3,368695e+000; 1,364766e+003
 3,370015e+000; 1,364329e+003
 3,371215e+000; 1,363885e+003
 3,372655e+000; 1,363405e+003
 3,373975e+000; 1,362933e+003
 3,375535e+000; 1,362384e+003
 3,376615e+000; 1,361939e+003
 3,379375e+000; 1,360909e+003
 3,380635e+000; 1,360368e+003
 3,382015e+000; 1,359801e+003
 3,383395e+000; 1,359208e+003
 3,384715e+000; 1,358571e+003
 3,386035e+000; 1,357917e+003
 3,387295e+000; 1,357245e+003
 3,388555e+000; 1,356547e+003
 3,389935e+000; 1,355840e+003
 3,391315e+000; 1,355151e+003
 3,392575e+000; 1,354409e+003
 3,393955e+000; 1,353650e+003
 3,395215e+000; 1,352856e+003
 3,396535e+000; 1,352062e+003
 3,397915e+000; 1,351199e+003
 3,399295e+000; 1,350335e+003
 3,400675e+000; 1,349427e+003
 3,401995e+000; 1,348520e+003
 3,403555e+000; 1,347429e+003
 3,404755e+000; 1,346540e+003
 3,406075e+000; 1,345510e+003
 3,408715e+000; 1,343224e+003
 3,409975e+000; 1,342011e+003
 3,411295e+000; 1,340746e+003
 3,412615e+000; 1,339420e+003
 3,413935e+000; 1,338068e+003
 3,415315e+000; 1,336637e+003
 3,416635e+000; 1,335145e+003
 3,417955e+000; 1,333601e+003
 3,419275e+000; 1,331978e+003
 3,420655e+000; 1,330268e+003
 3,422035e+000; 1,328462e+003
 3,423295e+000; 1,326586e+003
 3,424615e+000; 1,324588e+003
 3,425995e+000; 1,322476e+003
 3,427315e+000; 1,320260e+003
 3,428695e+000; 1,317913e+003
 3,430015e+000; 1,315427e+003
 3,431335e+000; 1,312774e+003
 3,432835e+000; 1,309607e+003
 3,433915e+000; 1,306972e+003
 3,436615e+000; 1,300376e+003
 3,437995e+000; 1,296782e+003
 3,439375e+000; 1,292908e+003
 3,440755e+000; 1,288764e+003
 3,442015e+000; 1,284349e+003
 3,443395e+000; 1,279672e+003
 3,444715e+000; 1,274682e+003
 3,445975e+000; 1,269429e+003
 3,447355e+000; 1,263915e+003
 3,448675e+000; 1,258157e+003
 3,449995e+000; 1,252172e+003
 3,451315e+000; 1,245977e+003
 3,452635e+000; 1,239669e+003
 3,453955e+000; 1,233256e+003
 3,455275e+000; 1,226817e+003
 3,456835e+000; 1,219611e+003
 3,458035e+000; 1,214062e+003
 3,459355e+000; 1,207823e+003
 3,461995e+000; 1,195835e+003
 3,463375e+000; 1,190129e+003
 3,464695e+000; 1,184641e+003
 3,466015e+000; 1,179389e+003
 3,467335e+000; 1,174381e+003
 3,468655e+000; 1,169600e+003
 3,469975e+000; 1,165019e+003
 3,471235e+000; 1,160709e+003
 3,472555e+000; 1,156626e+003
 3,473935e+000; 1,152708e+003
 3,475315e+000; 1,149035e+003
 3,476635e+000; 1,145572e+003
 3,478015e+000; 1,142265e+003
 3,479335e+000; 1,139106e+003
 3,480655e+000; 1,136131e+003
 3,481975e+000; 1,133296e+003
 3,483295e+000; 1,130600e+003
 3,484735e+000; 1,127738e+003
 3,485935e+000; 1,125600e+003
 3,487315e+000; 1,123280e+003
 3,489895e+000; 1,118987e+003
 3,491275e+000; 1,116998e+003
 3,492715e+000; 1,115078e+003
 3,494035e+000; 1,113229e+003
 3,495355e+000; 1,111466e+003
 3,496735e+000; 1,109713e+003
 3,497995e+000; 1,108037e+003
 3,499315e+000; 1,106441e+003
 3,500635e+000; 1,104914e+003
 3,501955e+000; 1,103439e+003
 3,503275e+000; 1,102017e+003
 3,504595e+000; 1,100674e+003
 3,505855e+000; 1,099356e+003
 3,507235e+000; 1,098100e+003
 3,508615e+000; 1,096913e+003
 3,509875e+000; 1,095735e+003
 3,511255e+000; 1,094619e+003
 3,512815e+000; 1,093423e+003
 3,515335e+000; 1,091530e+003
 3,516715e+000; 1,090605e+003
 3,517975e+000; 1,089654e+003
 3,519355e+000; 1,088747e+003
 3,520615e+000; 1,087839e+003
 3,521935e+000; 1,086984e+003
 3,523315e+000; 1,086138e+003
 3,524635e+000; 1,085318e+003
 3,526015e+000; 1,084506e+003
 3,527275e+000; 1,083747e+003
 3,528595e+000; 1,083006e+003
 3,529975e+000; 1,082282e+003
 3,531355e+000; 1,081584e+003
 3,532615e+000; 1,080921e+003
 3,533995e+000; 1,080240e+003
 3,535255e+000; 1,079603e+003
 3,536635e+000; 1,078984e+003
 3,538135e+000; 1,078294e+003
 3,539275e+000; 1,077771e+003
 3,540535e+000; 1,077204e+003
 3,543295e+000; 1,076078e+003
 3,544555e+000; 1,075581e+003
 3,545935e+000; 1,075040e+003
 3,547255e+000; 1,074560e+003
 3,548695e+000; 1,074063e+003
 3,550015e+000; 1,073583e+003
 3,551335e+000; 1,073129e+003
 3,552715e+000; 1,072693e+003
 3,554035e+000; 1,072222e+003
 3,555355e+000; 1,071760e+003
 3,556615e+000; 1,071314e+003
 3,557995e+000; 1,070843e+003
 3,559255e+000; 1,070416e+003
 3,560635e+000; 1,069988e+003
 3,562015e+000; 1,069604e+003
 3,563215e+000; 1,069221e+003
 3,564595e+000; 1,068837e+003
 3,565915e+000; 1,068496e+003
 3,567295e+000; 1,068139e+003
 3,568615e+000; 1,067807e+003
 3,571315e+000; 1,067179e+003
 3,572635e+000; 1,066830e+003
 3,573895e+000; 1,066551e+003
 3,575275e+000; 1,066245e+003
 3,576655e+000; 1,065940e+003
 3,577915e+000; 1,065643e+003
 3,579295e+000; 1,065382e+003
 3,580615e+000; 1,065085e+003
 3,581995e+000; 1,064814e+003
 3,583255e+000; 1,064535e+003
 3,584575e+000; 1,064265e+003
 3,585895e+000; 1,063986e+003
 3,587335e+000; 1,063741e+003
 3,588655e+000; 1,063497e+003
 3,589975e+000; 1,063261e+003
 3,591295e+000; 1,063035e+003
 3,592555e+000; 1,062817e+003
 3,593935e+000; 1,062598e+003
 3,595435e+000; 1,062354e+003
 3,596575e+000; 1,062180e+003
 3,599215e+000; 1,061796e+003
 3,600595e+000; 1,061621e+003
 3,601915e+000; 1,061447e+003
 3,603295e+000; 1,061255e+003
 3,604615e+000; 1,061089e+003
 3,605995e+000; 1,060932e+003
 3,607375e+000; 1,060723e+003
 3,608695e+000; 1,060548e+003
 3,609955e+000; 1,060400e+003
 3,611275e+000; 1,060199e+003
 3,612655e+000; 1,060025e+003
 3,613975e+000; 1,059868e+003
 3,615295e+000; 1,059676e+003
 3,616615e+000; 1,059492e+003
 3,617935e+000; 1,059344e+003
 3,619315e+000; 1,059152e+003
 3,620575e+000; 1,059004e+003
 3,621895e+000; 1,058864e+003
 3,623395e+000; 1,058698e+003
 3,624595e+000; 1,058576e+003
 3,627295e+000; 1,058332e+003
 3,628615e+000; 1,058227e+003
 3,629995e+000; 1,058114e+003
 3,631315e+000; 1,058000e+003
 3,632635e+000; 1,057870e+003
 3,633955e+000; 1,057739e+003
 3,635335e+000; 1,057582e+003
 3,636655e+000; 1,057477e+003
 3,637975e+000; 1,057329e+003
 3,639235e+000; 1,057206e+003
 3,640615e+000; 1,057093e+003
 3,641995e+000; 1,056997e+003
 3,643375e+000; 1,056849e+003
 3,644635e+000; 1,056744e+003
 3,646015e+000; 1,056613e+003
 3,647335e+000; 1,056517e+003
 3,648595e+000; 1,056378e+003
 3,649915e+000; 1,056273e+003
 3,651235e+000; 1,056159e+003
 3,652555e+000; 1,056090e+003
 3,653935e+000; 1,055994e+003
 3,656575e+000; 1,055819e+003
 3,657895e+000; 1,055767e+003
 3,659275e+000; 1,055662e+003
 3,660595e+000; 1,055575e+003
 3,661915e+000; 1,055505e+003
 3,663295e+000; 1,055427e+003
 3,664615e+000; 1,055348e+003
 3,665995e+000; 1,055296e+003
 3,667315e+000; 1,055200e+003
 3,668695e+000; 1,055121e+003
 3,670015e+000; 1,055043e+003
 3,671335e+000; 1,054929e+003
 3,672655e+000; 1,054825e+003
 3,673975e+000; 1,054746e+003
 3,675295e+000; 1,054641e+003
 3,676555e+000; 1,054615e+003
 3,677935e+000; 1,054554e+003
 3,679495e+000; 1,054502e+003
 3,680635e+000; 1,054467e+003
 3,683275e+000; 1,054380e+003
 3,684715e+000; 1,054353e+003
 3,686035e+000; 1,054292e+003
 3,687355e+000; 1,054240e+003
 3,688615e+000; 1,054179e+003
 3,689935e+000; 1,054127e+003
 3,691255e+000; 1,054066e+003
 3,692635e+000; 1,054013e+003
 3,693955e+000; 1,053969e+003
 3,695275e+000; 1,053908e+003
 3,696715e+000; 1,053856e+003
 3,697915e+000; 1,053795e+003
 3,699295e+000; 1,053760e+003
 3,700615e+000; 1,053690e+003
 3,701995e+000; 1,053647e+003
 3,704695e+000; 1,053525e+003
 3,706015e+000; 1,053472e+003
 3,707275e+000; 1,053437e+003
 3,708655e+000; 1,053376e+003
 3,709975e+000; 1,053341e+003
 3,711295e+000; 1,053315e+003
 3,712555e+000; 1,053271e+003
 3,714055e+000; 1,053237e+003
 3,715315e+000; 1,053202e+003
 3,716635e+000; 1,053167e+003
 3,719275e+000; 1,053106e+003
 3,720655e+000; 1,053080e+003
 3,721975e+000; 1,053036e+003
 3,723295e+000; 1,053001e+003
 3,724555e+000; 1,052949e+003
 3,725995e+000; 1,052888e+003
 3,727255e+000; 1,052835e+003
 3,728635e+000; 1,052792e+003
 3,729955e+000; 1,052757e+003
 3,731335e+000; 1,052731e+003
 3,732595e+000; 1,052687e+003
 3,733975e+000; 1,052670e+003
 3,735235e+000; 1,052670e+003
 3,736615e+000; 1,052643e+003
 3,737995e+000; 1,052617e+003
 3,739315e+000; 1,052626e+003
 3,740635e+000; 1,052608e+003
 3,742015e+000; 1,052600e+003
 3,743515e+000; 1,052591e+003
 3,744595e+000; 1,052591e+003
 3,747295e+000; 1,052556e+003
 3,748615e+000; 1,052539e+003
 3,749935e+000; 1,052539e+003
 3,751315e+000; 1,052495e+003
 3,752635e+000; 1,052486e+003
 3,753955e+000; 1,052478e+003
 3,755275e+000; 1,052443e+003
 3,756715e+000; 1,052408e+003
 3,757975e+000; 1,052390e+003
 3,759355e+000; 1,052364e+003
 3,760675e+000; 1,052312e+003
 3,761995e+000; 1,052303e+003
 3,763255e+000; 1,052294e+003
 3,764635e+000; 1,052294e+003
 3,765955e+000; 1,052286e+003
 3,767215e+000; 1,052303e+003
 3,768595e+000; 1,052303e+003
 3,769915e+000; 1,052303e+003
 3,771415e+000; 1,052303e+003
 3,772555e+000; 1,052312e+003
 3,775315e+000; 1,052347e+003
 3,776635e+000; 1,052347e+003
 3,778015e+000; 1,052347e+003
 3,779275e+000; 1,052373e+003
 3,780715e+000; 1,052364e+003
 3,782035e+000; 1,052338e+003
 3,783355e+000; 1,052329e+003
 3,784675e+000; 1,052312e+003
 3,785995e+000; 1,052268e+003
 3,787375e+000; 1,052251e+003
 3,788575e+000; 1,052242e+003
 3,789895e+000; 1,052242e+003
 3,791215e+000; 1,052225e+003
 3,792655e+000; 1,052233e+003
 3,793975e+000; 1,052251e+003
 3,795295e+000; 1,052259e+003
 3,796615e+000; 1,052259e+003
 3,797995e+000; 1,052294e+003
 3,799255e+000; 1,052312e+003
 3,800635e+000; 1,052303e+003
 3,802075e+000; 1,052294e+003
 3,803335e+000; 1,052329e+003
 3,805975e+000; 1,052329e+003
 3,807235e+000; 1,052355e+003
 3,808615e+000; 1,052373e+003
 3,809995e+000; 1,052364e+003
 3,811255e+000; 1,052355e+003
 3,812635e+000; 1,052364e+003
 3,813955e+000; 1,052355e+003
 3,815275e+000; 1,052364e+003
 3,816655e+000; 1,052373e+003
 3,818035e+000; 1,052390e+003
 3,819355e+000; 1,052408e+003
 3,820675e+000; 1,052399e+003
 3,821995e+000; 1,052425e+003
 3,823255e+000; 1,052434e+003
 3,824635e+000; 1,052443e+003
 3,825955e+000; 1,052443e+003
 3,827215e+000; 1,052478e+003
 3,828595e+000; 1,052486e+003
 3,829975e+000; 1,052504e+003
 3,831295e+000; 1,052547e+003
 3,832615e+000; 1,052591e+003
 3,833995e+000; 1,052626e+003
 3,835375e+000; 1,052626e+003
 3,836635e+000; 1,052652e+003
 3,837955e+000; 1,052626e+003
 3,839275e+000; 1,052635e+003
 3,840595e+000; 1,052617e+003
 3,841975e+000; 1,052626e+003
 3,843475e+000; 1,052617e+003
 3,844615e+000; 1,052635e+003
 3,845935e+000; 1,052626e+003
 3,848635e+000; 1,052661e+003
 3,849955e+000; 1,052713e+003
 3,851275e+000; 1,052731e+003
 3,852655e+000; 1,052757e+003
 3,853975e+000; 1,052766e+003
 3,855295e+000; 1,052800e+003
 3,856675e+000; 1,052792e+003
 3,857995e+000; 1,052818e+003
 3,859315e+000; 1,052818e+003
 3,860635e+000; 1,052853e+003
 3,861955e+000; 1,052861e+003
 3,863275e+000; 1,052853e+003
 3,864595e+000; 1,052888e+003
 3,865975e+000; 1,052905e+003
 3,867295e+000; 1,052905e+003
 3,868675e+000; 1,052896e+003
 3,869995e+000; 1,052922e+003
 3,871495e+000; 1,052879e+003
 3,872695e+000; 1,052870e+003
 3,875335e+000; 1,052888e+003
 3,876655e+000; 1,052896e+003
 3,877975e+000; 1,052922e+003
 3,879295e+000; 1,052940e+003
 3,880615e+000; 1,052940e+003
 3,881935e+000; 1,052966e+003
 3,883315e+000; 1,052975e+003
 3,884635e+000; 1,053019e+003
 3,885955e+000; 1,053027e+003
 3,887275e+000; 1,053062e+003
 3,888655e+000; 1,053071e+003
 3,890035e+000; 1,053115e+003
 3,891355e+000; 1,053132e+003
 3,892615e+000; 1,053132e+003
 3,893995e+000; 1,053132e+003
 3,895255e+000; 1,053158e+003
 3,896635e+000; 1,053132e+003
 3,897895e+000; 1,053115e+003
 3,899395e+000; 1,053123e+003
 3,900775e+000; 1,053115e+003
 3,901975e+000; 1,053132e+003
 3,903355e+000; 1,053158e+003
 3,905935e+000; 1,053176e+003
 3,907255e+000; 1,053193e+003
 3,908695e+000; 1,053202e+003
 3,909955e+000; 1,053210e+003
 3,911275e+000; 1,053237e+003
 3,912535e+000; 1,053245e+003
 3,913915e+000; 1,053263e+003
 3,915295e+000; 1,053271e+003
 3,916555e+000; 1,053280e+003
 3,917935e+000; 1,053298e+003
 3,919255e+000; 1,053324e+003
 3,920575e+000; 1,053333e+003
 3,921895e+000; 1,053368e+003
 3,923275e+000; 1,053385e+003
 3,924595e+000; 1,053394e+003
 3,925915e+000; 1,053420e+003
 3,927355e+000; 1,053446e+003
 3,928675e+000; 1,053437e+003
 3,930055e+000; 1,053455e+003
 3,931375e+000; 1,053481e+003
 3,932635e+000; 1,053464e+003
 3,934135e+000; 1,053472e+003
 3,935455e+000; 1,053464e+003
 3,936595e+000; 1,053472e+003
 3,937915e+000; 1,053464e+003
 3,940555e+000; 1,053533e+003
 3,941935e+000; 1,053594e+003
 3,943255e+000; 1,053620e+003
 3,944635e+000; 1,053655e+003
 3,945955e+000; 1,053708e+003
 3,947335e+000; 1,053725e+003
 3,948715e+000; 1,053717e+003
 3,949975e+000; 1,053743e+003
 3,951295e+000; 1,053760e+003
 3,952675e+000; 1,053734e+003
 3,953935e+000; 1,053751e+003
 3,955315e+000; 1,053778e+003
 3,956575e+000; 1,053760e+003
 3,957895e+000; 1,053778e+003
 3,959215e+000; 1,053804e+003
 3,960595e+000; 1,053813e+003
 3,961915e+000; 1,053821e+003
 3,963295e+000; 1,053856e+003
 3,964735e+000; 1,053874e+003
 3,965935e+000; 1,053900e+003
 3,967315e+000; 1,053917e+003
 3,969895e+000; 1,053996e+003
 3,971275e+000; 1,054022e+003
 3,972595e+000; 1,054039e+003
 3,973975e+000; 1,054074e+003
 3,975295e+000; 1,054109e+003
 3,976555e+000; 1,054127e+003
 3,977935e+000; 1,054161e+003
 3,979315e+000; 1,054170e+003
 3,980635e+000; 1,054179e+003
 3,981955e+000; 1,054196e+003
 3,983275e+000; 1,054205e+003
 3,984715e+000; 1,054179e+003
 3,986035e+000; 1,054205e+003
 3,987295e+000; 1,054205e+003
 3,988615e+000; 1,054196e+003
 3,989935e+000; 1,054214e+003
 3,991255e+000; 1,054257e+003
 3,992635e+000; 1,054266e+003
 3,994075e+000; 1,054301e+003
 3,995215e+000; 1,054327e+003
 3,996535e+000; 1,054353e+003
 3,999235e+000; 1,054441e+003
 4,000675e+000; 1,054493e+003
 4,001995e+000; 1,054545e+003
 4,003375e+000; 1,054572e+003
 4,004755e+000; 1,054598e+003
 4,006075e+000; 1,054624e+003
 4,007335e+000; 1,054633e+003
 4,008715e+000; 1,054650e+003
 4,009975e+000; 1,054676e+003
 4,011295e+000; 1,054667e+003
 4,012615e+000; 1,054659e+003
 4,013935e+000; 1,054667e+003
 4,015315e+000; 1,054685e+003
 4,016695e+000; 1,054667e+003
 4,017955e+000; 1,054694e+003
 4,019275e+000; 1,054729e+003
 4,020655e+000; 1,054772e+003
 4,021975e+000; 1,054772e+003
 4,023235e+000; 1,054807e+003
 4,025935e+000; 1,054877e+003
 4,027255e+000; 1,054894e+003
 4,028635e+000; 1,054938e+003
 4,030015e+000; 1,054982e+003
 4,031215e+000; 1,054999e+003
 4,032655e+000; 1,055025e+003
 4,033855e+000; 1,055051e+003
 4,035235e+000; 1,055060e+003
 4,036615e+000; 1,055104e+003
 4,037995e+000; 1,055139e+003
 4,039315e+000; 1,055156e+003
 4,040695e+000; 1,055182e+003
 4,042075e+000; 1,055217e+003
 4,043395e+000; 1,055208e+003
 4,044655e+000; 1,055226e+003
 4,045975e+000; 1,055235e+003
 4,047295e+000; 1,055252e+003
 4,048615e+000; 1,055270e+003
 4,049995e+000; 1,055296e+003
 4,051255e+000; 1,055322e+003
 4,052575e+000; 1,055365e+003
 4,055275e+000; 1,055435e+003
 4,056655e+000; 1,055470e+003
 4,057975e+000; 1,055505e+003
 4,059295e+000; 1,055523e+003
 4,060615e+000; 1,055557e+003
 4,061935e+000; 1,055566e+003
 4,063315e+000; 1,055592e+003
 4,064635e+000; 1,055619e+003
 4,065955e+000; 1,055636e+003
 4,067275e+000; 1,055627e+003
 4,068715e+000; 1,055619e+003
 4,069915e+000; 1,055619e+003
 4,071175e+000; 1,055601e+003
 4,072495e+000; 1,055592e+003
 4,073935e+000; 1,055610e+003
 4,075255e+000; 1,055645e+003
 4,076635e+000; 1,055680e+003
 4,078135e+000; 1,055732e+003
 4,079335e+000; 1,055767e+003
 4,080715e+000; 1,055802e+003
 4,083355e+000; 1,055863e+003
 4,084615e+000; 1,055898e+003
 4,085995e+000; 1,055933e+003
 4,087255e+000; 1,055959e+003
 4,088635e+000; 1,055976e+003
 4,090015e+000; 1,056020e+003
 4,091275e+000; 1,056046e+003
 4,092655e+000; 1,056081e+003
 4,094035e+000; 1,056116e+003
 4,095355e+000; 1,056142e+003
 4,096675e+000; 1,056142e+003
 4,097995e+000; 1,056186e+003
 4,099315e+000; 1,056194e+003
 4,100635e+000; 1,056203e+003
 4,101955e+000; 1,056203e+003
 4,103275e+000; 1,056238e+003
 4,104835e+000; 1,056247e+003
 4,105915e+000; 1,056255e+003
 4,107235e+000; 1,056264e+003
 4,109935e+000; 1,056360e+003
 4,111255e+000; 1,056395e+003
 4,112635e+000; 1,056430e+003
 4,113955e+000; 1,056508e+003
 4,115275e+000; 1,056517e+003
 4,116715e+000; 1,056570e+003
 4,118035e+000; 1,056561e+003
 4,119295e+000; 1,056613e+003
 4,120615e+000; 1,056631e+003
 4,121995e+000; 1,056657e+003
 4,123315e+000; 1,056657e+003
 4,124635e+000; 1,056692e+003
 4,126015e+000; 1,056674e+003
 4,127215e+000; 1,056683e+003
 4,128595e+000; 1,056683e+003
 4,129975e+000; 1,056718e+003
 4,131295e+000; 1,056744e+003
 4,132795e+000; 1,056788e+003
 4,133995e+000; 1,056796e+003
 4,136635e+000; 1,056823e+003
 4,137955e+000; 1,056849e+003
 4,139215e+000; 1,056840e+003
 4,140655e+000; 1,056866e+003
 4,141915e+000; 1,056901e+003
 4,143295e+000; 1,056927e+003
 4,144615e+000; 1,056910e+003
 4,145935e+000; 1,056971e+003
 4,147255e+000; 1,056997e+003
 4,148635e+000; 1,057023e+003
 4,149955e+000; 1,057041e+003
 4,151335e+000; 1,057102e+003
 4,152715e+000; 1,057102e+003
 4,154035e+000; 1,057119e+003
 4,155355e+000; 1,057119e+003
 4,156675e+000; 1,057137e+003
 4,157995e+000; 1,057128e+003
 4,159495e+000; 1,057145e+003
 4,160575e+000; 1,057154e+003
 4,163335e+000; 1,057180e+003
 4,164595e+000; 1,057215e+003
 4,165915e+000; 1,057241e+003
 4,167295e+000; 1,057276e+003
 4,168615e+000; 1,057302e+003
 4,169995e+000; 1,057329e+003
 4,171375e+000; 1,057337e+003
 4,172635e+000; 1,057355e+003
 4,173895e+000; 1,057381e+003
 4,175215e+000; 1,057390e+003
 4,176655e+000; 1,057433e+003
 4,177975e+000; 1,057451e+003
 4,179295e+000; 1,057451e+003
 4,180615e+000; 1,057433e+003
 4,181995e+000; 1,057451e+003
 4,183255e+000; 1,057416e+003
 4,184575e+000; 1,057407e+003
 4,185955e+000; 1,057451e+003
 4,187275e+000; 1,057451e+003
 4,188595e+000; 1,057451e+003
 4,190155e+000; 1,057468e+003
 4,191295e+000; 1,057477e+003
 4,192615e+000; 1,057425e+003
 4,193875e+000; 1,057425e+003
 4,196575e+000; 1,057416e+003
 4,197895e+000; 1,057398e+003
 4,199215e+000; 1,057416e+003
 4,200595e+000; 1,057425e+003
 4,201915e+000; 1,057468e+003
 4,203295e+000; 1,057451e+003
 4,204615e+000; 1,057503e+003
 4,206055e+000; 1,057503e+003
 4,207375e+000; 1,057521e+003
 4,208695e+000; 1,057468e+003
 4,210015e+000; 1,057459e+003
 4,211275e+000; 1,057407e+003
 4,212655e+000; 1,057390e+003
 4,214035e+000; 1,057337e+003
 4,215295e+000; 1,057346e+003
 4,216675e+000; 1,057311e+003
 4,217935e+000; 1,057259e+003
 4,219315e+000; 1,057215e+003
 4,220695e+000; 1,057180e+003
 4,221775e+000; 1,057154e+003
 4,223155e+000; 1,057145e+003
 4,225975e+000; 1,057128e+003
 4,227295e+000; 1,057110e+003
 4,228615e+000; 1,057076e+003
 4,229995e+000; 1,057049e+003
 4,231315e+000; 1,057032e+003
 4,232635e+000; 1,056997e+003
 4,233895e+000; 1,056962e+003
 4,235335e+000; 1,056953e+003
 4,236655e+000; 1,056936e+003
 4,238035e+000; 1,056866e+003
 4,239295e+000; 1,056831e+003
 4,240615e+000; 1,056788e+003
 4,241995e+000; 1,056753e+003
 4,243315e+000; 1,056674e+003
 4,244635e+000; 1,056657e+003
 4,245955e+000; 1,056604e+003
 4,247275e+000; 1,056561e+003
 4,248595e+000; 1,056508e+003
 4,249915e+000; 1,056474e+003
 4,251235e+000; 1,056430e+003
 4,252555e+000; 1,056404e+003
 4,253875e+000; 1,056360e+003
 4,255435e+000; 1,056308e+003
 4,256575e+000; 1,056264e+003
 4,257895e+000; 1,056221e+003
 4,260535e+000; 1,056125e+003
 4,261975e+000; 1,056081e+003
 4,263235e+000; 1,056046e+003
 4,264615e+000; 1,056011e+003
 4,265995e+000; 1,055976e+003
 4,267375e+000; 1,055941e+003
 4,268695e+000; 1,055889e+003
 4,269955e+000; 1,055828e+003
 4,271335e+000; 1,055741e+003
 4,272715e+000; 1,055653e+003
 4,273975e+000; 1,055584e+003
 4,275295e+000; 1,055531e+003
 4,276555e+000; 1,055479e+003
 4,277935e+000; 1,055435e+003
 4,279255e+000; 1,055374e+003
 4,280635e+000; 1,055348e+003
 4,281955e+000; 1,055278e+003
 4,283515e+000; 1,055226e+003
 4,284655e+000; 1,055182e+003
 4,285975e+000; 1,055130e+003
 4,288615e+000; 1,055025e+003
 4,289935e+000; 1,054964e+003
 4,291315e+000; 1,054894e+003
 4,292575e+000; 1,054833e+003
 4,293895e+000; 1,054755e+003
 4,295275e+000; 1,054694e+003
 4,296595e+000; 1,054598e+003
 4,297975e+000; 1,054528e+003
 4,299295e+000; 1,054467e+003
 4,300615e+000; 1,054406e+003
 4,301995e+000; 1,054327e+003
 4,303315e+000; 1,054292e+003
 4,304695e+000; 1,054214e+003
 4,306015e+000; 1,054153e+003
 4,307335e+000; 1,054092e+003
 4,308655e+000; 1,054039e+003
 4,309975e+000; 1,053969e+003
 4,311355e+000; 1,053926e+003
 4,312795e+000; 1,053821e+003
 4,313935e+000; 1,053778e+003
 4,316635e+000; 1,053673e+003
 4,317955e+000; 1,053612e+003
 4,319335e+000; 1,053568e+003
 4,320715e+000; 1,053490e+003
 4,322035e+000; 1,053411e+003
 4,323355e+000; 1,053341e+003
 4,324615e+000; 1,053263e+003
 4,325995e+000; 1,053167e+003
 4,327315e+000; 1,053088e+003
 4,328635e+000; 1,052984e+003
 4,329955e+000; 1,052879e+003
 4,331275e+000; 1,052783e+003
 4,332655e+000; 1,052678e+003
 4,333975e+000; 1,052591e+003
 4,335295e+000; 1,052512e+003
 4,336615e+000; 1,052443e+003
 4,338055e+000; 1,052364e+003
 4,339495e+000; 1,052312e+003
 4,340635e+000; 1,052251e+003
 4,342015e+000; 1,052172e+003
 4,344715e+000; 1,052015e+003
 4,345975e+000; 1,051919e+003
 4,347355e+000; 1,051823e+003
 4,348615e+000; 1,051753e+003
 4,349995e+000; 1,051657e+003
 4,351255e+000; 1,051570e+003
 4,352635e+000; 1,051474e+003
 4,354075e+000; 1,051404e+003
 4,355275e+000; 1,051291e+003
 4,356715e+000; 1,051186e+003
 4,358095e+000; 1,051073e+003
 4,359355e+000; 1,050994e+003
 4,360675e+000; 1,050846e+003
 4,361995e+000; 1,050733e+003
 4,363255e+000; 1,050602e+003
 4,364635e+000; 1,050497e+003
 4,365955e+000; 1,050366e+003
 4,367455e+000; 1,050270e+003
 4,368595e+000; 1,050157e+003
 4,371235e+000; 1,049974e+003
 4,372555e+000; 1,049886e+003
 4,373995e+000; 1,049782e+003
 4,375315e+000; 1,049677e+003
 4,376635e+000; 1,049537e+003
 4,377955e+000; 1,049415e+003
 4,379335e+000; 1,049258e+003
 4,380715e+000; 1,049110e+003
 4,382035e+000; 1,048944e+003
 4,383355e+000; 1,048813e+003
 4,384675e+000; 1,048656e+003
 4,385995e+000; 1,048516e+003
 4,387315e+000; 1,048368e+003
 4,388635e+000; 1,048237e+003
 4,389955e+000; 1,048089e+003
 4,391275e+000; 1,047967e+003
 4,392595e+000; 1,047836e+003
 4,394155e+000; 1,047714e+003
 4,395295e+000; 1,047609e+003
 4,396675e+000; 1,047513e+003
 4,399315e+000; 1,047286e+003
 4,400635e+000; 1,047155e+003
 4,401955e+000; 1,047051e+003
 4,403275e+000; 1,046929e+003
 4,404655e+000; 1,046798e+003
 4,405975e+000; 1,046676e+003
 4,407235e+000; 1,046536e+003
 4,408555e+000; 1,046396e+003
 4,409875e+000; 1,046257e+003
 4,411255e+000; 1,046117e+003
 4,412635e+000; 1,045995e+003
 4,413955e+000; 1,045873e+003
 4,415335e+000; 1,045759e+003
 4,416655e+000; 1,045602e+003
 4,418035e+000; 1,045463e+003
 4,419295e+000; 1,045332e+003
 4,420615e+000; 1,045192e+003
 4,422115e+000; 1,045044e+003
 4,423315e+000; 1,044931e+003
 4,425955e+000; 1,044678e+003
 4,427275e+000; 1,044564e+003
 4,428595e+000; 1,044433e+003
 4,429975e+000; 1,044337e+003
 4,431355e+000; 1,044233e+003
 4,432675e+000; 1,044110e+003
 4,433995e+000; 1,043971e+003
 4,435315e+000; 1,043857e+003
 4,436575e+000; 1,043718e+003
 4,437955e+000; 1,043578e+003
 4,439275e+000; 1,043421e+003
 4,440655e+000; 1,043282e+003
 4,441975e+000; 1,043133e+003
 4,443295e+000; 1,042968e+003
 4,444615e+000; 1,042828e+003
 4,445935e+000; 1,042697e+003
 4,447255e+000; 1,042566e+003
 4,448635e+000; 1,042427e+003
 4,449955e+000; 1,042313e+003
 4,452595e+000; 1,042034e+003
 4,453915e+000; 1,041912e+003
 4,455295e+000; 1,041790e+003
 4,456675e+000; 1,041624e+003
 4,457995e+000; 1,041493e+003
 4,459315e+000; 1,041310e+003
 4,460575e+000; 1,040987e+003
 4,461895e+000; 1,040551e+003
 4,463275e+000; 1,040106e+003
 4,464595e+000; 1,039608e+003
 4,465975e+000; 1,039102e+003
 4,467295e+000; 1,038692e+003
 4,468615e+000; 1,038370e+003
 4,469995e+000; 1,038064e+003
 4,471375e+000; 1,037750e+003
 4,472635e+000; 1,037453e+003
 4,473955e+000; 1,037174e+003
 4,475275e+000; 1,036886e+003
 4,476835e+000; 1,036572e+003
 4,477975e+000; 1,036337e+003
 4,479235e+000; 1,036084e+003
 4,481875e+000; 1,035560e+003
 4,483255e+000; 1,035316e+003
 4,484575e+000; 1,035063e+003
 4,485895e+000; 1,034827e+003
 4,487275e+000; 1,034627e+003
 4,488595e+000; 1,034391e+003
 4,489975e+000; 1,034190e+003
 4,491295e+000; 1,033981e+003
 4,492615e+000; 1,033763e+003
 4,493995e+000; 1,033545e+003
 4,495315e+000; 1,033335e+003
 4,496635e+000; 1,033117e+003
 4,497955e+000; 1,032882e+003
 4,499275e+000; 1,032655e+003
 4,500655e+000; 1,032437e+003
 4,501975e+000; 1,032219e+003
 4,503475e+000; 1,031974e+003
 4,504615e+000; 1,031826e+003
 4,505995e+000; 1,031625e+003
 4,508635e+000; 1,031241e+003
 4,509955e+000; 1,031032e+003
 4,511215e+000; 1,030823e+003
 4,512535e+000; 1,030648e+003
 4,513855e+000; 1,030491e+003
 4,515355e+000; 1,030308e+003
 4,516615e+000; 1,030168e+003
 4,517995e+000; 1,029985e+003
 4,519315e+000; 1,029810e+003
 4,520635e+000; 1,029610e+003
 4,522015e+000; 1,029444e+003
 4,523275e+000; 1,029261e+003
 4,524595e+000; 1,029095e+003
 4,526035e+000; 1,028912e+003
 4,527295e+000; 1,028737e+003
 4,528615e+000; 1,028554e+003
 4,529995e+000; 1,028380e+003
 4,531315e+000; 1,028223e+003
 4,532635e+000; 1,028039e+003
 4,535275e+000; 1,027725e+003
 4,536595e+000; 1,027568e+003
 4,537915e+000; 1,027420e+003
 4,539235e+000; 1,027298e+003
 4,540555e+000; 1,027167e+003
 4,541935e+000; 1,027062e+003
 4,543315e+000; 1,026957e+003
 4,544695e+000; 1,026818e+003
 4,546015e+000; 1,026696e+003
 4,547335e+000; 1,026565e+003
 4,548595e+000; 1,026434e+003
 4,549975e+000; 1,026294e+003
 4,551295e+000; 1,026172e+003
 4,552615e+000; 1,026041e+003
 4,553935e+000; 1,025910e+003
 4,555315e+000; 1,025771e+003
 4,556635e+000; 1,025631e+003
 4,558075e+000; 1,025483e+003
 4,559275e+000; 1,025396e+003
 4,560595e+000; 1,025239e+003
 4,563235e+000; 1,025038e+003
 4,564555e+000; 1,024942e+003
 4,565935e+000; 1,024846e+003
 4,567315e+000; 1,024750e+003
 4,568635e+000; 1,024637e+003
 4,569955e+000; 1,024532e+003
 4,571215e+000; 1,024427e+003
 4,572655e+000; 1,024305e+003
 4,573975e+000; 1,024227e+003
 4,575235e+000; 1,024087e+003
 4,576615e+000; 1,024026e+003
 4,577935e+000; 1,023886e+003
 4,579375e+000; 1,023816e+003
 4,580635e+000; 1,023712e+003
 4,582015e+000; 1,023642e+003
 4,583335e+000; 1,023511e+003
 4,584715e+000; 1,023433e+003
 4,586035e+000; 1,023310e+003
 4,587475e+000; 1,023188e+003
 4,588615e+000; 1,023084e+003
 4,591255e+000; 1,022892e+003
 4,592635e+000; 1,022796e+003
 4,593955e+000; 1,022691e+003
 4,595275e+000; 1,022630e+003
 4,596475e+000; 1,022551e+003
 4,597915e+000; 1,022490e+003
 4,599235e+000; 1,022429e+003
 4,600615e+000; 1,022394e+003
 4,601995e+000; 1,022342e+003
 4,603375e+000; 1,022281e+003
 4,604755e+000; 1,022229e+003
 4,606015e+000; 1,022150e+003
 4,607275e+000; 1,022063e+003
 4,608655e+000; 1,022002e+003
 4,609975e+000; 1,021923e+003
 4,611355e+000; 1,021827e+003
 4,612615e+000; 1,021775e+003
 4,614115e+000; 1,021696e+003
 4,615255e+000; 1,021627e+003
 4,616575e+000; 1,021565e+003
 4,619335e+000; 1,021478e+003
 4,620655e+000; 1,021443e+003
 4,621975e+000; 1,021391e+003
 4,623295e+000; 1,021356e+003
 4,624615e+000; 1,021304e+003
 4,625935e+000; 1,021251e+003
 4,627315e+000; 1,021208e+003
 4,628635e+000; 1,021164e+003
 4,629955e+000; 1,021129e+003
 4,631275e+000; 1,021086e+003
 4,632655e+000; 1,021059e+003
 4,633975e+000; 1,021007e+003
 4,635295e+000; 1,020972e+003
 4,636615e+000; 1,020929e+003
 4,637995e+000; 1,020894e+003
 4,639315e+000; 1,020850e+003
 4,640635e+000; 1,020815e+003
 4,642015e+000; 1,020771e+003
 4,643515e+000; 1,020693e+003
 4,644595e+000; 1,020658e+003
 4,646035e+000; 1,020606e+003
 4,648675e+000; 1,020527e+003
 4,649995e+000; 1,020492e+003
 4,651255e+000; 1,020466e+003
 4,652635e+000; 1,020440e+003
 4,653955e+000; 1,020422e+003
 4,655335e+000; 1,020414e+003
 4,656715e+000; 1,020396e+003
 4,657975e+000; 1,020370e+003
 4,659295e+000; 1,020361e+003
 4,660615e+000; 1,020318e+003
 4,661935e+000; 1,020283e+003
 4,663315e+000; 1,020257e+003
 4,664635e+000; 1,020231e+003
 4,665955e+000; 1,020204e+003
 4,667335e+000; 1,020126e+003
 4,668655e+000; 1,020091e+003
 4,669915e+000; 1,020039e+003
 4,671235e+000; 1,019995e+003
 4,672735e+000; 1,019934e+003
 4,673935e+000; 1,019943e+003
 4,676635e+000; 1,019890e+003
 4,677955e+000; 1,019882e+003
 4,679275e+000; 1,019838e+003
 4,680655e+000; 1,019794e+003
 4,681975e+000; 1,019768e+003
 4,683235e+000; 1,019751e+003
 4,684555e+000; 1,019725e+003
 4,685935e+000; 1,019725e+003
 4,687255e+000; 1,019725e+003
 4,688635e+000; 1,019733e+003
 4,689895e+000; 1,019733e+003
 4,691275e+000; 1,019716e+003
 4,692655e+000; 1,019707e+003
 4,694035e+000; 1,019690e+003
 4,695295e+000; 1,019681e+003
 4,696675e+000; 1,019629e+003
 4,697935e+000; 1,019594e+003
 4,699495e+000; 1,019568e+003
 4,700575e+000; 1,019541e+003
 4,703275e+000; 1,019498e+003
 4,704655e+000; 1,019471e+003
 4,705975e+000; 1,019445e+003
 4,707235e+000; 1,019437e+003
 4,708555e+000; 1,019445e+003
 4,709875e+000; 1,019419e+003
 4,711315e+000; 1,019445e+003
 4,712635e+000; 1,019480e+003
 4,713955e+000; 1,019489e+003
 4,715335e+000; 1,019498e+003
 4,716715e+000; 1,019515e+003
 4,717975e+000; 1,019515e+003
 4,719295e+000; 1,019506e+003
 4,720615e+000; 1,019480e+003
 4,721995e+000; 1,019454e+003
 4,723315e+000; 1,019437e+003
 4,724575e+000; 1,019428e+003
 4,725895e+000; 1,019402e+003
 4,727455e+000; 1,019428e+003
 4,728775e+000; 1,019402e+003
 4,729975e+000; 1,019402e+003
 4,731295e+000; 1,019384e+003
 4,732615e+000; 1,019376e+003
 4,735195e+000; 1,019341e+003
 4,736575e+000; 1,019349e+003
 4,737895e+000; 1,019376e+003
 4,739215e+000; 1,019393e+003
 4,740595e+000; 1,019428e+003
 4,741975e+000; 1,019454e+003
 4,743295e+000; 1,019437e+003
 4,744555e+000; 1,019463e+003
 4,745875e+000; 1,019454e+003
 4,747255e+000; 1,019489e+003
 4,748635e+000; 1,019489e+003
 4,750015e+000; 1,019533e+003
 4,751395e+000; 1,019515e+003
 4,752655e+000; 1,019550e+003
 4,753975e+000; 1,019533e+003
 4,755355e+000; 1,019524e+003
 4,756675e+000; 1,019515e+003
 4,757995e+000; 1,019515e+003
 4,759495e+000; 1,019498e+003
 4,760635e+000; 1,019506e+003
 4,763215e+000; 1,019515e+003
 4,764535e+000; 1,019533e+003
 4,765855e+000; 1,019559e+003
 4,767295e+000; 1,019594e+003
 4,768615e+000; 1,019629e+003
 4,770055e+000; 1,019672e+003
 4,771315e+000; 1,019698e+003
 4,772635e+000; 1,019733e+003
 4,773955e+000; 1,019751e+003
 4,775275e+000; 1,019786e+003
 4,776655e+000; 1,019812e+003
 4,777975e+000; 1,019855e+003
 4,779295e+000; 1,019890e+003
 4,780675e+000; 1,019908e+003
 4,781995e+000; 1,019925e+003
 4,783315e+000; 1,019943e+003
 4,784635e+000; 1,019943e+003
 4,786015e+000; 1,019951e+003
 4,787275e+000; 1,019969e+003
 4,788655e+000; 1,020012e+003
 4,790155e+000; 1,020039e+003
 4,791295e+000; 1,020047e+003
 4,792615e+000; 1,020074e+003
 4,793935e+000; 1,020108e+003
 4,796575e+000; 1,020135e+003
 4,797895e+000; 1,020187e+003
 4,799275e+000; 1,020204e+003
 4,800595e+000; 1,020239e+003
 4,801915e+000; 1,020283e+003
 4,803295e+000; 1,020344e+003
 4,804675e+000; 1,020379e+003
 4,805995e+000; 1,020396e+003
 4,807315e+000; 1,020431e+003
 4,808695e+000; 1,020431e+003
 4,809955e+000; 1,020440e+003
 4,811275e+000; 1,020431e+003
 4,812655e+000; 1,020475e+003
 4,813975e+000; 1,020457e+003
 4,815355e+000; 1,020449e+003
 4,816615e+000; 1,020457e+003
 4,817935e+000; 1,020457e+003
 4,819315e+000; 1,020457e+003
 4,820575e+000; 1,020475e+003
 4,822075e+000; 1,020510e+003
 4,823215e+000; 1,020527e+003
 4,824595e+000; 1,020571e+003
 4,825975e+000; 1,020614e+003
 4,828615e+000; 1,020702e+003
 4,829995e+000; 1,020745e+003
 4,831315e+000; 1,020789e+003
 4,832695e+000; 1,020798e+003
 4,833955e+000; 1,020833e+003
 4,835275e+000; 1,020850e+003
 4,836655e+000; 1,020850e+003
 4,837975e+000; 1,020867e+003
 4,839295e+000; 1,020867e+003
 4,840615e+000; 1,020876e+003
 4,841935e+000; 1,020885e+003
 4,843315e+000; 1,020920e+003
 4,844635e+000; 1,020902e+003
 4,846015e+000; 1,020955e+003
 4,847275e+000; 1,020963e+003
 4,848595e+000; 1,020981e+003
 4,849915e+000; 1,020990e+003
 4,851235e+000; 1,021033e+003
 4,852615e+000; 1,021068e+003
 4,854055e+000; 1,021112e+003
 4,855375e+000; 1,021129e+003
 4,856695e+000; 1,021155e+003
 4,859215e+000; 1,021208e+003
 4,860595e+000; 1,021286e+003
 4,861975e+000; 1,021304e+003
 4,863355e+000; 1,021356e+003
 4,864615e+000; 1,021382e+003
 4,865995e+000; 1,021435e+003
 4,867375e+000; 1,021435e+003
 4,868695e+000; 1,021469e+003
 4,869955e+000; 1,021478e+003
 4,871275e+000; 1,021469e+003
 4,872715e+000; 1,021478e+003
 4,874035e+000; 1,021487e+003
 4,875355e+000; 1,021513e+003
 4,876615e+000; 1,021531e+003
 4,877935e+000; 1,021583e+003
 4,879255e+000; 1,021592e+003
 4,880575e+000; 1,021635e+003
 4,881955e+000; 1,021679e+003
 4,883335e+000; 1,021714e+003
 4,884715e+000; 1,021740e+003
 4,885975e+000; 1,021784e+003
 4,887355e+000; 1,021784e+003
 4,888615e+000; 1,021801e+003
 4,889995e+000; 1,021810e+003
 4,891435e+000; 1,021845e+003
 4,892635e+000; 1,021853e+003
 4,893955e+000; 1,021871e+003
 4,896595e+000; 1,021897e+003
 4,897915e+000; 1,021923e+003
 4,899295e+000; 1,021941e+003
 4,900675e+000; 1,021976e+003
 4,902055e+000; 1,021958e+003
 4,903315e+000; 1,022028e+003
 4,904695e+000; 1,022019e+003
 4,905955e+000; 1,022037e+003
 4,907335e+000; 1,022054e+003
 4,908655e+000; 1,022124e+003
 4,909975e+000; 1,022106e+003
 4,911355e+000; 1,022150e+003
 4,912615e+000; 1,022176e+003
 4,913995e+000; 1,022220e+003
 4,915255e+000; 1,022229e+003
 4,916635e+000; 1,022298e+003
 4,918015e+000; 1,022342e+003
 4,919335e+000; 1,022394e+003
 4,920715e+000; 1,022429e+003
 4,922035e+000; 1,022464e+003
 4,923295e+000; 1,022464e+003
 4,924675e+000; 1,022482e+003
 4,927315e+000; 1,022490e+003
 4,928695e+000; 1,022490e+003
 4,929955e+000; 1,022499e+003
 4,931275e+000; 1,022508e+003
 4,932655e+000; 1,022508e+003
 4,933915e+000; 1,022516e+003
 4,935235e+000; 1,022551e+003
 4,936555e+000; 1,022586e+003
 4,937995e+000; 1,022621e+003
 4,939315e+000; 1,022691e+003
 4,940635e+000; 1,022743e+003
 4,942015e+000; 1,022787e+003
 4,943395e+000; 1,022787e+003
 4,944655e+000; 1,022839e+003
 4,945975e+000; 1,022839e+003
 4,947295e+000; 1,022848e+003
 4,948555e+000; 1,022848e+003
 4,949935e+000; 1,022909e+003
 4,951315e+000; 1,022909e+003
 4,952635e+000; 1,022935e+003
 4,954015e+000; 1,022944e+003
 4,956715e+000; 1,023005e+003
 4,958035e+000; 1,023023e+003
 4,959295e+000; 1,023031e+003
 4,960615e+000; 1,023066e+003
 4,961935e+000; 1,023040e+003
 4,963255e+000; 1,023075e+003
 4,964635e+000; 1,023066e+003
 4,965895e+000; 1,023110e+003
 4,967275e+000; 1,023127e+003
 4,968595e+000; 1,023153e+003
 4,969975e+000; 1,023171e+003
 4,971295e+000; 1,023232e+003
 4,972615e+000; 1,023249e+003
 4,973935e+000; 1,023293e+003
 4,975375e+000; 1,023319e+003
 4,976635e+000; 1,023354e+003
 4,977955e+000; 1,023363e+003
 4,979275e+000; 1,023398e+003
 4,980715e+000; 1,023389e+003
 4,981975e+000; 1,023424e+003
 4,983355e+000; 1,023415e+003
 4,984615e+000; 1,023415e+003
 4,985995e+000; 1,023398e+003
 4,987315e+000; 1,023424e+003
 4,988755e+000; 1,023415e+003
 4,990075e+000; 1,023415e+003
 4,991215e+000; 1,023433e+003
 4,992655e+000; 1,023467e+003
 4,993915e+000; 1,023485e+003
 4,996675e+000; 1,023555e+003
 4,997995e+000; 1,023590e+003
 4,999315e+000; 1,023598e+003
 5,000635e+000; 1,023598e+003
 5,001895e+000; 1,023598e+003
 5,003215e+000; 1,023633e+003
 5,004595e+000; 1,023659e+003
 5,005975e+000; 1,023677e+003
 5,007295e+000; 1,023712e+003
 5,008615e+000; 1,023755e+003
 5,009935e+000; 1,023764e+003
 5,011315e+000; 1,023773e+003
 5,012695e+000; 1,023782e+003
 5,013955e+000; 1,023808e+003
 5,015275e+000; 1,023816e+003
 5,016655e+000; 1,023825e+003
 5,017975e+000; 1,023851e+003
 5,019295e+000; 1,023878e+003
 5,020795e+000; 1,023921e+003
 5,021935e+000; 1,023912e+003
 5,024635e+000; 1,023965e+003
 5,025895e+000; 1,024008e+003
 5,027215e+000; 1,024008e+003
 5,028595e+000; 1,024061e+003
 5,029975e+000; 1,024078e+003
 5,031295e+000; 1,024122e+003
 5,032615e+000; 1,024131e+003
 5,033935e+000; 1,024157e+003
 5,035315e+000; 1,024157e+003
 5,036575e+000; 1,024166e+003
 5,037955e+000; 1,024122e+003
 5,039215e+000; 1,024087e+003
 5,040595e+000; 1,024061e+003
 5,041915e+000; 1,024017e+003
 5,043235e+000; 1,023991e+003
 5,044615e+000; 1,023965e+003
 5,045935e+000; 1,023965e+003
 5,047315e+000; 1,023947e+003
 5,048635e+000; 1,023965e+003
 5,049895e+000; 1,023921e+003
 5,051215e+000; 1,023939e+003
 5,052595e+000; 1,023921e+003
 5,053915e+000; 1,023939e+003
 5,055475e+000; 1,023921e+003
 5,056615e+000; 1,023947e+003
 5,059255e+000; 1,023956e+003
 5,060695e+000; 1,023939e+003
 5,062015e+000; 1,023974e+003
 5,063275e+000; 1,023956e+003
 5,064655e+000; 1,023965e+003
 5,065975e+000; 1,023947e+003
 5,067295e+000; 1,023974e+003
 5,068675e+000; 1,023965e+003
 5,070055e+000; 1,023956e+003
 5,071375e+000; 1,023956e+003
 5,072695e+000; 1,023974e+003
 5,073955e+000; 1,023947e+003
 5,075215e+000; 1,023956e+003
 5,076655e+000; 1,023974e+003
 5,077975e+000; 1,023965e+003
 5,079295e+000; 1,023982e+003
 5,080555e+000; 1,024000e+003
 5,081995e+000; 1,024008e+003
 5,083435e+000; 1,024008e+003
 5,084635e+000; 1,024043e+003
 5,085895e+000; 1,024052e+003
 5,087275e+000; 1,024078e+003
 5,089975e+000; 1,024087e+003
 5,091295e+000; 1,024104e+003
 5,092675e+000; 1,024113e+003
 5,093935e+000; 1,024113e+003
 5,095315e+000; 1,024131e+003
 5,096635e+000; 1,024122e+003
 5,097955e+000; 1,024104e+003
 5,099275e+000; 1,024096e+003
 5,100535e+000; 1,024096e+003
 5,101975e+000; 1,024087e+003
 5,103295e+000; 1,024096e+003
 5,104615e+000; 1,024096e+003
 5,105935e+000; 1,024104e+003
 5,107315e+000; 1,024113e+003
 5,108635e+000; 1,024122e+003
 5,109955e+000; 1,024139e+003
 5,111215e+000; 1,024157e+003
 5,112595e+000; 1,024174e+003
 5,113915e+000; 1,024148e+003
 5,115415e+000; 1,024174e+003
 5,116615e+000; 1,024183e+003
 5,117935e+000; 1,024209e+003
 5,120575e+000; 1,024270e+003
 5,121895e+000; 1,024244e+003
 5,123275e+000; 1,024270e+003
 5,124655e+000; 1,024261e+003
 5,125975e+000; 1,024270e+003
 5,127295e+000; 1,024270e+003
 5,128615e+000; 1,024296e+003
 5,129995e+000; 1,024288e+003
 5,131375e+000; 1,024296e+003
 5,132695e+000; 1,024288e+003
 5,133955e+000; 1,024288e+003
 5,135275e+000; 1,024288e+003
 5,136595e+000; 1,024305e+003
 5,137915e+000; 1,024331e+003
 5,139235e+000; 1,024357e+003
 5,140615e+000; 1,024375e+003
 5,141995e+000; 1,024410e+003
 5,143375e+000; 1,024427e+003
 5,144635e+000; 1,024427e+003
 5,146015e+000; 1,024471e+003
 5,147335e+000; 1,024488e+003
 5,148715e+000; 1,024506e+003
 5,150155e+000; 1,024514e+003
 5,151295e+000; 1,024514e+003
 5,152615e+000; 1,024497e+003
 5,155315e+000; 1,024480e+003
 5,156635e+000; 1,024480e+003
 5,157895e+000; 1,024488e+003
 5,159215e+000; 1,024480e+003
 5,160535e+000; 1,024514e+003
 5,161915e+000; 1,024497e+003
 5,163295e+000; 1,024532e+003
 5,164555e+000; 1,024541e+003
 5,165995e+000; 1,024576e+003
 5,167315e+000; 1,024576e+003
 5,168635e+000; 1,024619e+003
 5,169955e+000; 1,024619e+003
 5,171275e+000; 1,024637e+003
 5,172595e+000; 1,024628e+003
 5,173915e+000; 1,024628e+003
 5,175295e+000; 1,024628e+003
 5,176615e+000; 1,024645e+003
 5,177935e+000; 1,024654e+003
 5,179315e+000; 1,024645e+003
 5,180635e+000; 1,024672e+003
 5,182015e+000; 1,024663e+003
 5,183335e+000; 1,024645e+003
 5,184895e+000; 1,024637e+003
 5,186095e+000; 1,024619e+003
 5,187295e+000; 1,024619e+003
 5,189875e+000; 1,024654e+003
 5,191255e+000; 1,024645e+003
 5,192635e+000; 1,024645e+003
 5,193955e+000; 1,024654e+003
 5,195215e+000; 1,024672e+003
 5,196535e+000; 1,024680e+003
 5,197855e+000; 1,024715e+003
 5,199295e+000; 1,024724e+003
 5,200615e+000; 1,024767e+003
 5,201995e+000; 1,024767e+003
 5,203375e+000; 1,024776e+003
 5,204755e+000; 1,024794e+003
 5,206075e+000; 1,024811e+003
 5,207335e+000; 1,024802e+003
 5,208655e+000; 1,024811e+003
 5,210035e+000; 1,024802e+003
 5,211355e+000; 1,024767e+003
 5,212675e+000; 1,024776e+003
 5,213935e+000; 1,024759e+003
 5,215315e+000; 1,024750e+003
 5,216635e+000; 1,024750e+003
 5,217955e+000; 1,024776e+003
 5,219275e+000; 1,024785e+003
 5,220655e+000; 1,024802e+003
 5,222155e+000; 1,024785e+003
 5,223235e+000; 1,024811e+003
 5,224615e+000; 1,024820e+003
 5,227255e+000; 1,024846e+003
 5,228635e+000; 1,024872e+003
 5,229955e+000; 1,024881e+003
 5,231275e+000; 1,024872e+003
 5,232595e+000; 1,024881e+003
 5,233915e+000; 1,024863e+003
 5,235235e+000; 1,024872e+003
 5,236615e+000; 1,024872e+003
 5,237995e+000; 1,024916e+003
 5,239315e+000; 1,024916e+003
 5,240635e+000; 1,024933e+003
 5,242075e+000; 1,024951e+003
 5,243395e+000; 1,024933e+003
 5,244715e+000; 1,024898e+003
 5,245915e+000; 1,024916e+003
 5,247295e+000; 1,024916e+003
 5,248615e+000; 1,024907e+003
 5,249995e+000; 1,024933e+003
 5,251255e+000; 1,024942e+003
 5,252575e+000; 1,024951e+003
 5,254075e+000; 1,024959e+003
 5,255275e+000; 1,024994e+003
 5,258095e+000; 1,025055e+003
 5,259415e+000; 1,025082e+003
 5,260615e+000; 1,025090e+003
 5,261995e+000; 1,025099e+003
 5,263375e+000; 1,025108e+003
 5,264635e+000; 1,025134e+003
 5,265955e+000; 1,025125e+003
 5,267395e+000; 1,025160e+003
 5,268655e+000; 1,025134e+003
 5,269975e+000; 1,025160e+003
 5,271235e+000; 1,025143e+003
 5,272675e+000; 1,025160e+003
 5,273935e+000; 1,025151e+003
 5,275315e+000; 1,025195e+003
 5,276695e+000; 1,025186e+003
 5,278015e+000; 1,025221e+003
 5,279335e+000; 1,025239e+003
 5,280655e+000; 1,025239e+003
 5,281975e+000; 1,025239e+003
 5,283295e+000; 1,025256e+003
 5,284615e+000; 1,025256e+003
 5,286115e+000; 1,025282e+003
 5,287315e+000; 1,025300e+003
 5,288635e+000; 1,025308e+003
 5,291215e+000; 1,025326e+003
 5,292655e+000; 1,025335e+003
 5,294035e+000; 1,025343e+003
 5,295355e+000; 1,025352e+003
 5,296675e+000; 1,025378e+003
 5,297935e+000; 1,025335e+003
 5,299315e+000; 1,025326e+003
 5,300635e+000; 1,025326e+003
 5,301955e+000; 1,025335e+003
 5,303275e+000; 1,025326e+003
 5,304655e+000; 1,025343e+003
 5,305975e+000; 1,025352e+003
 5,307175e+000; 1,025335e+003
 5,308555e+000; 1,025335e+003
 5,309935e+000; 1,025352e+003
 5,311255e+000; 1,025378e+003
 5,312635e+000; 1,025396e+003
 5,313955e+000; 1,025448e+003
 5,315335e+000; 1,025483e+003
 5,317975e+000; 1,025500e+003
 5,319355e+000; 1,025500e+003
 5,320675e+000; 1,025500e+003
 5,321995e+000; 1,025492e+003
 5,323315e+000; 1,025518e+003
 5,324635e+000; 1,025500e+003
 5,325955e+000; 1,025509e+003
 5,327275e+000; 1,025483e+003
 5,328655e+000; 1,025474e+003
 5,329975e+000; 1,025474e+003
 5,331295e+000; 1,025474e+003
 5,332615e+000; 1,025492e+003
 5,333995e+000; 1,025492e+003
 5,335315e+000; 1,025509e+003
 5,336575e+000; 1,025492e+003
 5,337895e+000; 1,025509e+003
 5,339275e+000; 1,025492e+003
 5,340655e+000; 1,025509e+003
 5,341915e+000; 1,025500e+003
 5,343355e+000; 1,025509e+003
 5,344555e+000; 1,025500e+003
 5,345875e+000; 1,025518e+003
 5,347315e+000; 1,025509e+003
 5,348695e+000; 1,025526e+003
 5,350135e+000; 1,025526e+003
 5,351395e+000; 1,025526e+003
 5,354035e+000; 1,025509e+003
 5,355355e+000; 1,025474e+003
 5,356675e+000; 1,025439e+003
 5,357995e+000; 1,025413e+003
 5,359315e+000; 1,025396e+003
 5,360635e+000; 1,025387e+003
 5,361895e+000; 1,025352e+003
 5,363215e+000; 1,025343e+003
 5,364535e+000; 1,025335e+003
 5,365915e+000; 1,025317e+003
 5,367295e+000; 1,025282e+003
 5,368615e+000; 1,025291e+003
 5,369995e+000; 1,025265e+003
 5,371255e+000; 1,025282e+003
 5,372635e+000; 1,025256e+003
 5,373895e+000; 1,025256e+003
 5,375275e+000; 1,025247e+003
 5,376595e+000; 1,025265e+003
 5,377915e+000; 1,025230e+003
 5,379295e+000; 1,025239e+003
 5,380615e+000; 1,025212e+003
 5,381995e+000; 1,025186e+003
 5,383255e+000; 1,025151e+003
 5,384635e+000; 1,025134e+003
 5,386135e+000; 1,025108e+003
 5,387275e+000; 1,025073e+003
 5,390035e+000; 1,025047e+003
 5,391295e+000; 1,025047e+003
 5,392615e+000; 1,025021e+003
 5,393995e+000; 1,025029e+003
 5,395255e+000; 1,024994e+003
 5,396575e+000; 1,024986e+003
 5,397895e+000; 1,024968e+003
 5,399215e+000; 1,024977e+003
 5,400655e+000; 1,024977e+003
 5,401915e+000; 1,024977e+003
 5,403295e+000; 1,024977e+003
 5,404615e+000; 1,024968e+003
 5,405995e+000; 1,024968e+003
 5,407315e+000; 1,024933e+003
 5,408635e+000; 1,024925e+003
 5,409895e+000; 1,024907e+003
 5,411335e+000; 1,024890e+003
 5,412655e+000; 1,024837e+003
 5,413975e+000; 1,024811e+003
 5,415295e+000; 1,024794e+003
 5,416615e+000; 1,024767e+003
 5,418175e+000; 1,024741e+003
 5,419255e+000; 1,024706e+003
 5,420575e+000; 1,024689e+003
 5,423215e+000; 1,024637e+003
 5,424595e+000; 1,024637e+003
 5,425915e+000; 1,024637e+003
 5,427295e+000; 1,024619e+003
 5,428615e+000; 1,024610e+003
 5,429935e+000; 1,024610e+003
 5,431315e+000; 1,024584e+003
 5,432695e+000; 1,024576e+003
 5,433895e+000; 1,024549e+003
 5,435275e+000; 1,024523e+003
 5,436595e+000; 1,024471e+003
 5,438035e+000; 1,024453e+003
 5,439235e+000; 1,024401e+003
 5,440615e+000; 1,024401e+003
 5,441995e+000; 1,024366e+003
 5,443315e+000; 1,024375e+003
 5,444695e+000; 1,024331e+003
 5,446015e+000; 1,024314e+003
 5,447275e+000; 1,024270e+003
 5,448595e+000; 1,024253e+003
 5,449975e+000; 1,024192e+003
 5,451235e+000; 1,024183e+003
 5,452555e+000; 1,024174e+003
 5,453935e+000; 1,024131e+003
 5,455495e+000; 1,024113e+003
 5,456635e+000; 1,024087e+003
 5,457895e+000; 1,024069e+003
 5,460595e+000; 1,024026e+003
 5,461915e+000; 1,023991e+003
 5,463295e+000; 1,023982e+003
 5,464615e+000; 1,023939e+003
 5,465995e+000; 1,023947e+003
 5,467315e+000; 1,023886e+003
 5,468635e+000; 1,023834e+003
 5,469955e+000; 1,023782e+003
 5,471275e+000; 1,023747e+003
 5,472655e+000; 1,023659e+003
 5,473975e+000; 1,023633e+003
 5,475235e+000; 1,023590e+003
 5,476555e+000; 1,023572e+003
 5,477935e+000; 1,023502e+003
 5,479315e+000; 1,023502e+003
 5,480695e+000; 1,023476e+003
 5,482015e+000; 1,023467e+003
 5,483275e+000; 1,023433e+003
 5,484655e+000; 1,023433e+003
 5,486035e+000; 1,023380e+003
 5,487475e+000; 1,023354e+003
 5,488675e+000; 1,023310e+003
 5,489935e+000; 1,023267e+003
 5,492575e+000; 1,023188e+003
 5,493895e+000; 1,023136e+003
 5,495275e+000; 1,023110e+003
 5,496655e+000; 1,023092e+003
 5,497975e+000; 1,023057e+003
 5,499355e+000; 1,023031e+003
 5,500675e+000; 1,023005e+003
 5,502055e+000; 1,022979e+003
 5,503435e+000; 1,022927e+003
 5,504695e+000; 1,022874e+003
 5,506015e+000; 1,022831e+003
 5,507335e+000; 1,022761e+003
 5,508655e+000; 1,022726e+003
 5,509915e+000; 1,022682e+003
 5,511295e+000; 1,022647e+003
 5,512615e+000; 1,022604e+003
 5,513995e+000; 1,022595e+003
 5,515315e+000; 1,022534e+003
 5,516635e+000; 1,022490e+003
 5,517955e+000; 1,022447e+003
 5,519335e+000; 1,022412e+003
 5,520655e+000; 1,022342e+003
 5,523355e+000; 1,022220e+003
 5,524615e+000; 1,022167e+003
 5,525935e+000; 1,022089e+003
 5,527375e+000; 1,022019e+003
 5,528635e+000; 1,021932e+003
 5,529955e+000; 1,021888e+003
 5,531275e+000; 1,021801e+003
 5,532655e+000; 1,021723e+003
 5,533975e+000; 1,021661e+003
 5,535295e+000; 1,021618e+003
 5,536615e+000; 1,021557e+003
 5,537935e+000; 1,021504e+003
 5,539315e+000; 1,021461e+003
 5,540635e+000; 1,021400e+003
 5,542015e+000; 1,021347e+003
 5,543275e+000; 1,021286e+003
 5,544655e+000; 1,021225e+003
 5,545975e+000; 1,021147e+003
 5,547295e+000; 1,021068e+003
 5,548795e+000; 1,020981e+003
 5,549935e+000; 1,020902e+003
 5,551315e+000; 1,020815e+003
 5,553955e+000; 1,020684e+003
 5,555275e+000; 1,020580e+003
 5,556655e+000; 1,020492e+003
 5,558035e+000; 1,020422e+003
 5,559415e+000; 1,020300e+003
 5,560675e+000; 1,020196e+003
 5,561935e+000; 1,020117e+003
 5,563255e+000; 1,020030e+003
 5,564635e+000; 1,019908e+003
 5,565895e+000; 1,019838e+003
 5,567275e+000; 1,019759e+003
 5,568595e+000; 1,019672e+003
 5,569975e+000; 1,019602e+003
 5,571235e+000; 1,019524e+003
 5,572615e+000; 1,019454e+003
 5,573995e+000; 1,019376e+003
 5,575315e+000; 1,019280e+003
 5,576755e+000; 1,019192e+003
 5,577955e+000; 1,019105e+003
 5,579275e+000; 1,019018e+003
 5,582035e+000; 1,018826e+003
 5,583355e+000; 1,018704e+003
 5,584675e+000; 1,018599e+003
 5,585995e+000; 1,018468e+003
 5,587315e+000; 1,018337e+003
 5,588635e+000; 1,018215e+003
 5,589955e+000; 1,018093e+003
 5,591275e+000; 1,017988e+003
 5,592655e+000; 1,017884e+003
 5,593975e+000; 1,017796e+003
 5,595295e+000; 1,017700e+003
 5,596675e+000; 1,017604e+003
 5,597995e+000; 1,017482e+003
 5,599315e+000; 1,017378e+003
 5,600575e+000; 1,017255e+003
 5,601955e+000; 1,017133e+003
 5,603275e+000; 1,017011e+003
 5,604655e+000; 1,016898e+003
 5,606155e+000; 1,016732e+003
 5,607295e+000; 1,016627e+003
 5,609935e+000; 1,016365e+003
 5,611255e+000; 1,016217e+003
 5,612575e+000; 1,016086e+003
 5,613955e+000; 1,015938e+003
 5,615275e+000; 1,015798e+003
 5,616655e+000; 1,015633e+003
 5,618035e+000; 1,015493e+003
 5,619295e+000; 1,015327e+003
 5,620615e+000; 1,015188e+003
 5,621875e+000; 1,015022e+003
 5,623315e+000; 1,014891e+003
 5,624575e+000; 1,014760e+003
 5,625955e+000; 1,014620e+003
 5,627275e+000; 1,014472e+003
 5,628595e+000; 1,014341e+003
 5,629915e+000; 1,014202e+003
 5,631295e+000; 1,014045e+003
 5,632795e+000; 1,013905e+003
 5,633995e+000; 1,013783e+003
 5,636635e+000; 1,013460e+003
 5,638015e+000; 1,013294e+003
 5,639275e+000; 1,013102e+003
 5,640655e+000; 1,012910e+003
 5,641975e+000; 1,012736e+003
 5,643295e+000; 1,012535e+003
 5,644615e+000; 1,012352e+003
 5,645875e+000; 1,012160e+003
 5,647255e+000; 1,012003e+003
 5,648575e+000; 1,011820e+003
 5,649895e+000; 1,011654e+003
 5,651275e+000; 1,011462e+003
 5,652655e+000; 1,011296e+003
 5,653915e+000; 1,011122e+003
 5,655295e+000; 1,010939e+003
 5,656555e+000; 1,010738e+003
 5,657995e+000; 1,010572e+003
 5,659375e+000; 1,010363e+003
 5,660635e+000; 1,010162e+003
 5,661955e+000; 1,009961e+003
 5,664655e+000; 1,009569e+003
 5,665975e+000; 1,009359e+003
 5,667295e+000; 1,009167e+003
 5,668615e+000; 1,008932e+003
 5,670055e+000; 1,008696e+003
 5,671375e+000; 1,008469e+003
 5,672695e+000; 1,008216e+003
 5,673955e+000; 1,007963e+003
 5,675215e+000; 1,007719e+003
 5,676655e+000; 1,007484e+003
 5,677915e+000; 1,007239e+003
 5,679295e+000; 1,007012e+003
 5,680615e+000; 1,006759e+003
 5,681995e+000; 1,006533e+003
 5,683195e+000; 1,006280e+003
 5,684515e+000; 1,006053e+003
 5,685955e+000; 1,005800e+003
 5,687275e+000; 1,005590e+003
 5,688835e+000; 1,005320e+003
 5,689975e+000; 1,005093e+003
 5,692675e+000; 1,004569e+003
 5,694055e+000; 1,004282e+003
 5,695375e+000; 1,004002e+003
 5,696695e+000; 1,003714e+003
 5,697955e+000; 1,003418e+003
 5,699275e+000; 1,003130e+003
 5,700595e+000; 1,002798e+003
 5,701915e+000; 1,002502e+003
 5,703295e+000; 1,002170e+003
 5,704615e+000; 1,001847e+003
 5,705995e+000; 1,001516e+003
 5,707315e+000; 1,001210e+003
 5,708635e+000; 1,000879e+003
 5,709955e+000; 1,000556e+003
 5,711215e+000; 1,000224e+003
 5,712535e+000; 9,998929e+002
 5,713915e+000; 9,995614e+002
 5,715235e+000; 9,992211e+002
 5,716735e+000; 9,988373e+002
 5,717935e+000; 9,985493e+002
 5,719315e+000; 9,982265e+002
 5,721895e+000; 9,974937e+002
 5,723275e+000; 9,971097e+002
 5,724655e+000; 9,967084e+002
 5,725975e+000; 9,962983e+002
 5,727295e+000; 9,958882e+002
 5,728675e+000; 9,954782e+002
 5,729995e+000; 9,950594e+002
 5,731315e+000; 9,946319e+002
 5,732635e+000; 9,941957e+002
 5,733895e+000; 9,937681e+002
 5,735275e+000; 9,933057e+002
 5,736535e+000; 9,928433e+002
 5,737915e+000; 9,924158e+002
 5,739295e+000; 9,919446e+002
 5,740615e+000; 9,914910e+002
 5,741935e+000; 9,910198e+002
 5,743315e+000; 9,905399e+002
 5,744635e+000; 9,900426e+002
 5,746135e+000; 9,894930e+002
 5,747395e+000; 9,890218e+002
 5,749975e+000; 9,879661e+002
 5,751355e+000; 9,873990e+002
 5,752615e+000; 9,868406e+002
 5,753995e+000; 9,862560e+002
 5,755315e+000; 9,856366e+002
 5,756635e+000; 9,850345e+002
 5,757955e+000; 9,844064e+002
 5,759275e+000; 9,837695e+002
 5,760655e+000; 9,831500e+002
 5,761975e+000; 9,825044e+002
 5,763295e+000; 9,818587e+002
 5,764615e+000; 9,811956e+002
 5,765935e+000; 9,805063e+002
 5,767375e+000; 9,798084e+002
 5,768635e+000; 9,791104e+002
 5,769895e+000; 9,783775e+002
 5,771215e+000; 9,776272e+002
 5,772835e+000; 9,767634e+002
 5,773975e+000; 9,760916e+002
 5,776555e+000; 9,744426e+002
 5,777935e+000; 9,735963e+002
 5,779315e+000; 9,727151e+002
 5,780635e+000; 9,717903e+002
 5,781955e+000; 9,708741e+002
 5,783335e+000; 9,699319e+002
 5,784715e+000; 9,689285e+002
 5,786035e+000; 9,678815e+002
 5,787295e+000; 9,668258e+002
 5,788615e+000; 9,656916e+002
 5,789935e+000; 9,645399e+002
 5,791255e+000; 9,633708e+002
 5,792575e+000; 9,621667e+002
 5,793895e+000; 9,609279e+002
 5,795215e+000; 9,596540e+002
 5,796535e+000; 9,583104e+002
 5,797915e+000; 9,569319e+002
 5,799295e+000; 9,554573e+002
 5,800675e+000; 9,539218e+002
 5,801995e+000; 9,523164e+002
 5,803375e+000; 9,506238e+002
 5,806075e+000; 9,468896e+002
 5,807275e+000; 9,448043e+002
 5,808655e+000; 9,425446e+002
 5,810035e+000; 9,400929e+002
 5,811355e+000; 9,373708e+002
 5,812675e+000; 9,343171e+002
 5,813995e+000; 9,308708e+002
 5,815315e+000; 9,269271e+002
 5,816635e+000; 9,222506e+002
 5,817955e+000; 9,164224e+002
           0,0; 8,619882e+002
           0,0; 6,990431e+002
           0,0; 5,376510e+002
           0,0; 3,776200e+002
           0,0; 2,194212e+002
           0,0; 1,105352e+002
           0,0; 1,110675e+002
           0,0; 1,110587e+002
           0,0; 1,109802e+002
           0,0; 1,109366e+002
           0,0; 1,109017e+002
           0,0; 1,108144e+002
           0,0; 1,108144e+002
           0,0; 1,107621e+002
           0,0; 1,107185e+002
           0,0; 1,107097e+002
           0,0; 1,106836e+002
           0,0; 1,106399e+002
           0,0; 1,106225e+002
           0,0; 1,106225e+002
           0,0; 1,105876e+002
           0,0; 1,105789e+002
           0,0; 1,105789e+002
           0,0; 1,105614e+002
           0,0; 1,105527e+002
           0,0; 1,105352e+002
           0,0; 1,105091e+002
           0,0; 1,105091e+002
           0,0; 1,104916e+002
           0,0; 1,104742e+002
           0,0; 1,104305e+002
           0,0; 1,104044e+002
           0,0; 1,104131e+002
           0,0; 1,104131e+002
           0,0; 1,104218e+002
           0,0; 1,104044e+002
           0,0; 1,103957e+002
           0,0; 1,103695e+002
           0,0; 1,103520e+002
           0,0; 1,103346e+002
           0,0; 1,103259e+002
           0,0; 1,103171e+002
           0,0; 1,103084e+002
           0,0; 1,103171e+002
           0,0; 1,103171e+002
           0,0; 1,102822e+002
           0,0; 1,103084e+002
           0,0; 1,102910e+002
           0,0; 1,102910e+002
           0,0; 1,102822e+002
           0,0; 1,102561e+002
           0,0; 1,102473e+002
           0,0; 1,102386e+002
